Timestamp,EEG_1,EEG_2,EEG_3,EEG_4,EEG_5,EEG_6,EEG_7,EEG_8
1741815628.5048673,0.0,0.0,0.0,0.0,0.0,0.0,0.0,0.0
1741815628.9886065,5141.527073565373,3113.9109270466483,-10312.312580622744,8830.235461024698,-7782.25157049317,6847.322803416587,10826.492110072626,-187500.02235174447
1741815628.9887476,5236.432580522607,3184.2518668474995,-10251.69464965995,8911.059368975088,-7714.816357471509,6918.066074617634,10917.240192561174,-187500.02235174447
1741815628.9887636,5191.662036378627,3462.486381827162,-9954.438800148822,9181.068441995198,-7419.4157027501715,7209.9798572039435,11162.97527110282,-187500.02235174447
1741815628.9887788,5135.49210256244,3445.834332207958,-9959.78086707364,9155.676860293968,-7436.067752369375,7193.1936971180085,11117.53417462518,-187500.02235174447
1741815628.9887936,5147.807913757314,3168.2480178174997,-10258.802504396737,8880.482182560228,-7738.129226938395,6908.454824501851,10865.451200658226,-187500.02235174447
1741815628.988814,5244.903891671168,3162.615378214762,-10274.627539471096,8885.779545996136,-7754.91538702433,6899.894106375469,10890.351043981438,-187500.02235174447
1741815628.9888284,5233.236281065498,3454.037422423056,-9971.73905035723,9164.416392375993,-7451.781028721456,7195.607685519181,11152.313488997637,-187500.02235174447
1741815628.9888425,5155.072230705289,3493.778824064592,-9920.508852065666,9203.956628317432,-7395.611094905269,7243.127494231164,11164.785762403699,-187500.02235174447
1741815628.9888587,5154.245216160442,3216.4830823520524,-10199.68214031245,8941.0107065452,-7678.360662264903,6960.75790652727,10918.849518161955,-187500.02235174447
1741815628.9888728,5241.796999191881,3137.916700591648,-10294.744109480871,8867.9428539208,-7771.567436643534,6875.083670030078,10871.8661513169,-187500.02235174447
1741815628.988889,5263.254673868975,3418.878128394858,-10004.998446106727,9141.975240942866,-7482.425270369682,7158.459086234461,11131.593421887568,-187500.02235174447
1741815628.9889033,5181.335530440275,3533.117894305932,-9876.14063932188,9247.095495116175,-7348.001879215465,7279.158506293119,11209.355140847581,-187500.02235174447
1741815628.988918,5155.608672572216,3271.5801324343843,-10155.716258968861,8991.413890291917,-7624.045923238507,7015.497328698317,10961.273129138128,-187500.02235174447
1741815628.9889357,5228.520062985428,3123.6786393736174,-10322.460272605453,8846.060496099055,-7791.460489208757,6857.694012843849,10847.390991138338,-187500.02235174447
1741815628.9889495,5270.094307672299,3362.7528980675816,-10066.286929403179,9084.486554203815,-7542.417352487726,7096.187126181976,11078.552732295124,-187500.02235174447
1741815628.9889655,5197.629952148193,3547.601824712971,-9864.875360116406,9264.060469157752,-7331.305126107351,7294.782375667379,11226.029542211241,-187500.02235174447
1741815628.9889796,5155.742783038948,3322.184481881199,-10100.328636208611,9046.64505084098,-7568.948873156175,7068.359204335118,11001.662731368868,-187500.02235174447
1741815628.9889946,5197.9652283150235,3108.8370810552933,-10329.1881476865,8840.830187896514,-7802.882230625419,6843.858283026014,10826.268592628074,-187500.02235174447
1741815628.9890084,5258.6055110222715,3290.3108942879317,-10137.320773282145,9032.138768689487,-7608.712626542167,7026.337924759141,11016.481937942737,-187500.02235174447
1741815628.9890225,5175.50172513744,3524.7806936241027,-9881.013319613137,9250.627070740113,-7351.68991705059,7266.596825909237,11208.438719324913,-187500.02235174447
1741815628.9890385,5115.710808719494,3352.3146334069534,-10056.072182187103,9083.145449536498,-7527.218166258117,7097.528230849294,11027.99308633722,-187500.02235174447
1741815628.9890575,5145.5503875673285,3090.106319201746,-10338.352362913176,8827.396789478873,-7806.97259986074,6831.788341020148,10807.157851118785,-187500.02235174447
1741815628.989084,5226.195481562077,3206.9612392140916,-10221.318628945188,8952.834779362056,-7690.050624615029,6945.1340371530105,10941.245966106173,-187500.02235174447
1741815628.9890983,5179.078004250289,3505.804062581547,-9913.088072906503,9227.78358790679,-7374.891027795199,7240.869968041178,11189.462088282358,-187500.02235174447
1741815628.9891129,5126.0596664023005,3411.3008870245085,-10003.322065272578,9138.868348463577,-7455.178493878662,7153.519350709838,11082.62074978599,-187500.02235174447
1741815628.9891288,5139.537768308851,3131.948784822081,-10291.145478623566,8863.316042818553,-7749.506264866146,6874.256655485232,10842.853587013911,-187500.02235174447
1741815628.989143,5241.908757914157,3203.2508496345104,-10234.394399451543,8939.110808266498,-7698.298418319037,6940.328412095119,10933.892242180376,-187500.02235174447
1741815628.9891567,5223.17799606061,3523.50664419015,-9901.576924512021,9243.519216003326,-7365.7044608240685,7262.953491563022,11211.545611804202,-187500.02235174447
1741815628.9891708,5155.899245250135,3511.8166818400246,-9907.567192026043,9226.934221617488,-7363.5363416119035,7247.6648983555915,11174.374660775025,-187500.02235174447
1741815628.989188,5153.328794637775,3207.497681081019,-10213.182593963456,8939.870767577979,-7685.692034446244,6941.870682462536,10913.753320426145,-187500.02235174447
1741815628.989204,5249.843627195791,3184.117756380768,-10242.508082688819,8927.219680216274,-7717.453863317235,6916.0320658722,10921.934058896788,-187500.02235174447
1741815628.989218,5245.239167837998,3483.407614637329,-9943.665259321364,9212.696160399457,-7401.400196719193,7220.23930790893,11187.964521403852,-187500.02235174447
1741815628.989232,5174.674710592593,3562.6669004758483,-9859.466237958222,9279.416117598548,-7316.485919533482,7301.107919348231,11228.577641079146,-187500.02235174447
1741815628.989246,5165.622254088194,3282.040748839468,-10145.81443617516,9013.408006835938,-7613.741769044611,7015.609087420594,10972.828981021523,-187500.02235174447
1741815628.9892616,5251.520008029939,3184.2518668474995,-10236.115483774602,8930.818311073579,-7725.232270387683,6915.965010638834,10921.35291354095,-187500.02235174447
1741815628.9892771,5262.248845368486,3458.7983439920363,-9950.236672191224,9199.463927681914,-7442.169778605674,7195.205354118986,11176.520428242735,-187500.02235174447
1741815628.989292,5178.474507149996,3603.3023718955965,-9802.55869657501,9324.879565820644,-7280.812535382812,7340.715210523035,11273.23642650085,-187500.02235174447
1741815628.9893093,5140.0295066868675,3347.71017404916,-10068.633862570985,9073.377737209528,-7544.406657744248,7079.557428307227,11028.618935181968,-187500.02235174447
1741815628.989324,5208.381141231196,3197.7076170095943,-10236.964850063903,8930.080703506554,-7714.548136538046,6922.379961297508,10915.452053004748,-187500.02235174447
1741815628.9893389,5245.708554471559,3434.9713844026787,-9991.341530244534,9165.824552276677,-7470.66825278619,7168.942054384,11146.099704039063,-187500.02235174447
1741815628.9893548,5152.1218004371885,3634.48305541075,-9773.4567252942,9350.718182410978,-7247.3743256776725,7380.903647053677,11301.71254893691,-187500.02235174447
1741815628.989369,5095.393073009619,3415.994753360123,-9992.772041889673,9143.517511310281,-7464.946206205632,7159.889597879601,11089.661549289413,-187500.02235174447
1741815628.9893825,5129.121855392677,3184.9224191811586,-10234.886137829559,8925.677409848859,-7706.881488189875,6923.408141542452,10904.857326132933,-187500.02235174447
1741815628.9894004,5195.350074213752,3360.897703277791,-10059.491999088765,9107.41944401496,-7528.447512203159,7101.6186000846155,11083.224246886284,-187500.02235174447
1741815628.9894145,5118.303611076309,3598.7426160267137,-9805.75499603212,9324.901917565097,-7276.364538236206,7342.972736713021,11275.404545713014,-187500.02235174447
1741815628.9894338,5071.297892486798,3453.1433526448436,-9956.49516063871,9176.598093104136,-7420.220365550562,7194.04306340731,11116.461290891326,-187500.02235174447
1741815628.9894476,5115.442587786029,3194.6677797636726,-10241.055219299224,8921.341171424529,-7700.734758464666,6928.213766600343,10895.715462650713,-187500.02235174447
1741815628.989463,5216.450120979563,3298.8269089254036,-10129.989401100804,9037.346725147572,-7599.749577015588,7030.718866672381,11019.477071699748,-187500.02235174447
1741815628.9894776,5179.368576928208,3580.5929995290044,-9830.900708544339,9303.131318465628,-7303.119576349209,7318.385817812183,11262.46288567339,-187500.02235174447
1741815628.989492,5132.094637405234,3509.514452161128,-9901.465165789743,9230.555204219247,-7370.174809715129,7247.933119289055,11173.346480530081,-187500.02235174447
1741815628.9895077,5162.336547653264,3229.357687158309,-10198.92218100097,8956.165189285897,-7663.496752202124,6961.137886183011,10927.477291521704,-187500.02235174447
1741815628.9895215,5250.9165109296455,3245.1156669993006,-10200.196230434924,8981.333253542572,-7658.780534122055,6979.6451305920045,10966.704603040767,-187500.02235174447
1741815628.9895356,5222.440388493585,3523.439588956784,-9902.806270457062,9248.59306199468,-7364.363356156749,7262.372346207184,11212.21616413786,-187500.02235174447
1741815628.9895537,5148.21024515751,3517.0022865536557,-9891.786860440596,9241.060524113242,-7365.615053846247,7256.382078693161,11182.421288778936,-187500.02235174447
1741815628.9895675,5150.4230678585855,3226.004925490013,-10201.82790778016,8962.066049822099,-7662.490923701635,6963.753040284281,10921.531727496593,-187500.02235174447
1741815628.9895833,5235.739676444492,3167.9350933951255,-10271.40888826953,8916.75906381119,-7723.734703509177,6897.7036354188485,10898.978817341187,-187500.02235174447
1741815628.989597,5220.808711148347,3433.9432041577347,-9975.628253892453,9180.755517572823,-7444.8072844514,7169.7690689288465,11149.251300007261,-187500.02235174447
1741815628.989611,5142.644660788138,3507.12281550441,-9893.887924419394,9246.737867204889,-7364.162190456652,7254.5939391367365,11187.383376048014,-187500.02235174447
1741815628.989625,5129.367724581686,3230.4752743810745,-10189.243875651822,8975.030061606176,-7661.7086126457,6973.5431043557055,10925.040951376075,-187500.02235174447
1741815628.989639,5206.101263296755,3115.6767148586173,-10322.236755160899,8866.892321931402,-7795.506154955167,6850.384992406964,10846.698087060224,-187500.02235174447
1741815628.9896567,5215.019609334423,3356.740278809104,-10071.338423650077,9099.931609622432,-7541.389172242782,7092.342626135663,11074.462363059803,-187500.02235174447
1741815628.9896748,5132.8098932278035,3498.0256555111,-9914.228011873724,9232.097474586662,-7380.076632508831,7242.032258752854,11177.615663721046,-187500.02235174447
1741815628.9896889,5112.53686100684,3254.0116612925126,-10164.835770706626,8995.59366650506,-7630.7290948306445,6993.033825520733,10942.54236728458,-187500.02235174447
1741815628.9897027,5173.557123369828,3062.926597944093,-10374.562188930773,8816.399731206862,-7835.761646719176,6800.764119716182,10792.942141645211,-187500.02235174447
1741815628.9897168,5221.836891393291,3269.479068455585,-10167.160352129978,9028.003695965255,-7622.369542404359,7015.296162998219,10996.521830144147,-187500.02235174447
1741815628.9897356,5136.520282807384,3472.7234807876926,-9952.941233270316,9212.24912551035,-7400.930810085632,7228.062418468287,11155.174512287917,-187500.02235174447
1741815628.9897497,5095.4824799874405,3277.7939173929594,-10150.173026343946,9016.112567915032,-7599.190783404206,7026.1367590590435,10959.239120392695,-187500.02235174447
1741815628.989764,5152.345317881742,3053.851789695238,-10372.036441807324,8803.145146744866,-7845.462303812779,6794.237410335232,10782.61563570686,-187500.02235174447
1741815628.989778,5225.189653061588,3206.0448176914238,-10225.610163880607,8964.01065158971,-7689.491831003646,6950.140827910999,10943.034105662598,-187500.02235174447
1741815628.9897957,5164.102335465233,3477.417347123307,-9938.569061585553,9216.719474401412,-7397.801565861889,7229.5823370912485,11171.603044462569,-187500.02235174447
1741815628.9898112,5127.378419325164,3373.7276045951376,-10037.587289522564,9112.56034523968,-7507.928610793187,7123.299792206263,11054.8598831725,-187500.02235174447
1741815628.9898252,5168.237408189465,3133.111075533757,-10299.214458371933,8870.401545810884,-7773.802611089064,6871.395632194953,10846.541624849036,-187500.02235174447
1741815628.9898393,5261.511237801461,3219.299402153421,-10215.261306197799,8971.900817382433,-7684.954426879219,6962.881322250524,10957.36157385845,-187500.02235174447
1741815628.9898548,5228.27419379642,3507.3910364378735,-9910.115290893948,9247.967213149932,-7377.8414580633,7258.952529305521,11209.98098969233,-187500.02235174447
1741815628.9898689,5180.463812406518,3461.0558701820223,-9958.037431006125,9197.564029403215,-7421.7626359179785,7211.008037448888,11138.6789248799,-187500.02235174447
1741815628.9898846,5195.014798046923,3173.5230295089523,-10267.631443456585,8919.731845823748,-7728.808549500532,6917.820205428625,10883.422003200294,-187500.02235174447
1741815628.989899,5276.375147864241,3182.5754860133516,-10266.715021933916,8939.602546644515,-7734.508244336635,6923.497548520273,10923.319867053016,-187500.02235174447
1741815628.9899163,5241.8193509363355,3478.7808035350804,-9956.428105405344,9214.998390078354,-7429.451636010604,7221.580412576248,11186.958692903363,-187500.02235174447
1741815628.9899304,5161.665995319605,3494.40467290934,-9926.72263702424,9227.604773951147,-7401.601362419291,7244.334488431751,11175.49224799779,-187500.02235174447
1741815628.9899592,5148.947852724535,3197.6182100317733,-10230.147568005033,8939.066104777588,-7710.234249858171,6941.133074895511,10906.824279645,-187500.02235174447
1741815628.9899776,5226.866033895735,3124.3268399628214,-10320.672133049027,8873.664900501359,-7790.722881641732,6856.64348085445,10864.646537857836,-187500.02235174447
1741815628.9899936,5227.357772273752,3403.5001282096064,-10021.046998625636,9147.920804967976,-7493.243514686051,7140.957670325955,11126.899555551954,-187500.02235174447
1741815628.9900093,5143.337564866253,3495.343446176463,-9915.658523518863,9229.079989085198,-7387.117432012253,7237.204281950508,11181.303701556171,-187500.02235174447
1741815628.990026,5137.280242118864,3229.0224109914793,-10197.871649011571,8968.05631733612,-7659.764010878088,6966.725822296838,10926.560869999037,-187500.02235174447
1741815628.9900427,5211.1751092881095,3098.2200024390227,-10347.740095584404,8843.89237688689,-7814.706303442276,6834.336439888053,10830.403665352305,-187500.02235174447
1741815628.9900644,5229.481187997007,3345.6985170481826,-10082.693109833373,9089.649807172991,-7557.616538717335,7085.614751054615,11067.66743274539,-187500.02235174447
1741815628.9900858,5130.373553082175,3499.7243880897036,-9909.690607749297,9231.11399783063,-7377.215609218551,7243.283956442351,11184.321187057638,-187500.02235174447
1741815628.990102,5101.539802734828,3263.3770422192865,-10159.069020637158,8998.365282817518,-7623.598888349401,7002.823889592158,10952.779466245112,-187500.02235174447
1741815628.9901175,5172.953626269535,3065.295882856355,-10369.287177239321,8808.956600303245,-7836.052219397095,6794.460927779785,10795.959627146678,-187500.02235174447
1741815628.990134,5224.228528050009,3266.5062864430292,-10163.449962550398,9009.384692833984,-7629.924432030253,6999.515831412773,10996.030091766132,-187500.02235174447
1741815628.990152,5117.968334909479,3476.6573878118265,-9927.3931893579,9213.791395877766,-7392.012464047964,7230.454055125005,11173.637053208,-187500.02235174447
1741815628.990168,5066.782840106826,3304.7054177171494,-10098.205220485357,9052.12122823253,-7561.237521319094,7057.317442574196,10999.293446456606,-187500.02235174447
1741815628.990184,5123.48921578994,3081.2773801419,-10338.039438490801,8832.023600581122,-7803.709245170266,6822.557070560107,10812.790490721523,-187500.02235174447
1741815628.990204,5204.581344673794,3226.6754778236723,-10200.486803112843,8985.602436733538,-7660.479266700658,6968.066926964156,10967.531617585615,-187500.02235174447
1741815628.9902203,5154.245216160442,3520.802083111058,-9890.95984589575,9254.762143464344,-7357.814295031345,7263.9146165746,11215.188946150416,-187500.02235174447
1741815628.9902449,5123.1092361342,3429.2046343332095,-9978.355166716,9163.499970853325,-7450.66344149869,7168.495019494894,11109.241677432261,-187500.02235174447
1741815628.9902618,5151.317137636797,3152.199465298589,-10268.346699279155,8901.492822348217,-7739.939718239274,6894.060301072634,10876.53766590806,-187500.02235174447
1741815628.9902775,5239.047734623878,3223.501530111019,-10199.995064734825,8983.501372754738,-7673.1080023179065,6967.485781608318,10969.006832719664,-187500.02235174447
1741815628.9902935,5183.101318252244,3519.7291993772033,-9891.898619162872,9259.098381888674,-7363.5363416119035,7267.602654409726,11221.402731108992,-187500.02235174447
1741815628.9903114,5123.06453264529,3504.8205858255133,-9901.19694485628,9240.613489224135,-7374.399289417182,7257.276148471374,11180.431983522414,-187500.02235174447
1741815628.9903297,5134.8662537176915,3230.452922636619,-10187.276922139756,8977.667567451903,-7658.981699822152,6978.281674180231,10941.603594017459,-187500.02235174447
1741815628.9903498,5220.182862303599,3241.047649508435,-10183.275959882256,8999.482870040283,-7653.058487541496,6985.434232405929,10982.149658459384,-187500.02235174447
1741815628.990366,5194.523059668906,3563.605673742971,-9844.267051728613,9306.975818511943,-7313.2896200763735,7312.663771231624,11271.85061834462,-187500.02235174447
1741815628.9903824,5117.230727342454,3640.0039362912103,-9758.414001275778,9374.835714678255,-7224.016752721876,7397.220420506052,11309.33449379617,-187500.02235174447
1741815628.9903984,5108.558250493795,3366.8879707918136,-10048.383182094478,9102.122080579053,-7515.952887052642,7117.890670048078,11050.277775559161,-187500.02235174447
1741815628.9904177,5190.946780556057,3285.326455274398,-10146.730857697828,9020.44880633936,-7607.997370719597,7027.679029426459,10995.873629554944,-187500.02235174447
1741815628.9904337,5190.969132300513,3541.119818820932,-9873.704299176252,9272.55413205077,-7332.757989496946,7292.502497732938,11241.094617974117,-187500.02235174447
1741815628.9904532,5093.649636942106,3616.66871507987,-9770.819219448475,9345.08554280824,-7243.663936098092,7376.500353395982,11287.787412141253,-187500.02235174447
1741815628.99047,5082.227895525443,3333.4050575977635,-10063.4259061129,9069.957920307867,-7536.091808806874,7089.571009823205,11022.963943834775,-187500.02235174447
1741815628.99049,5157.910902251113,3167.108078850279,-10248.878329858582,8919.888308034933,-7719.9572586962295,6917.261411817242,10901.035177831076,-187500.02235174447
1741815628.9905083,5186.8117078318255,3387.0715960349557,-10020.689370714352,9139.360086841594,-7489.421366384193,7134.207443500453,11112.572087356102,-187500.02235174447
1741815628.990524,5090.051006084801,3539.5551967090605,-9859.153313535848,9266.362698836649,-7330.053428417854,7286.892209874655,11218.899335729997,-187500.02235174447
1741815628.9905417,5055.919892301547,3295.787071679482,-10110.14105202449,9024.539175574682,-7577.464887793647,7036.127988830565,10980.920312514343,-187500.02235174447
1741815628.9905577,5139.470713075485,3095.113109959735,-10315.978266713413,8846.284013543607,-7782.4080327043575,6835.811655022104,10831.945935719721,-187500.02235174447
1741815628.9905736,5216.293658768375,3288.6345134537833,-10114.544345682187,9046.756809563258,-7578.716585483145,7036.083285341655,11030.161205549384,-187500.02235174447
1741815628.9905918,5135.380343840164,3520.7126761332365,-9871.42442124181,9255.767971964833,-7333.8308732308005,7273.458811457016,11215.837146739621,-187500.02235174447
1741815628.9906075,5096.220087554466,3354.125124707833,-10038.704876745329,9097.629379943535,-7498.272657188494,7108.927620521501,11049.450761014314,-187500.02235174447
1741815628.9906275,5152.524131837384,3113.4191886686313,-10297.091042648679,8864.143057363399,-7760.324509182515,6858.275158199687,10849.737924306146,-187500.02235174447
1741815628.9906435,5234.46562701054,3240.8688355527925,-10180.392584847521,8997.404157805939,-7643.268423470071,6991.491555153318,10986.50824862817,-187500.02235174447
1741815628.9906597,5167.9691872560015,3511.704923117748,-9895.206677342258,9252.772838207822,-7350.080591449809,7269.927235833077,11218.6981700299,-187500.02235174447
1741815629.4671457,5111.978067395457,3407.6575526782935,-9989.821611621574,9156.302709138718,-7452.496284544026,7168.60677821717,11104.659569818923,-187500.02235174447
1741815629.4674604,5132.429913572063,3131.680563888617,-10279.991958140368,8888.014720441666,-7755.988270758185,6888.718234147816,10862.634880856858,-187500.02235174447
1741815629.4678612,5232.699839198571,3202.3120763673874,-10227.2641929703,8966.11171556851,-7698.656046230322,6955.505246580273,10947.437399320293,-187500.02235174447
1741815629.467906,5190.365635200219,3492.415367652818,-9922.92284046684,9239.16062583454,-7391.632484392225,7247.977822777966,11202.694320999899,-187500.02235174447
1741815629.4679527,5116.269602330876,3457.7925154915474,-9942.97235524325,9208.292866741762,-7410.296191012406,7219.345238130718,11151.709991897344,-187500.02235174447
1741815629.4679933,5126.77492222487,3180.8991051792036,-10239.468245442897,8933.835796575046,-7708.133185879373,6934.695772492382,10899.49290746366,-187500.02235174447
1741815629.468034,5222.7980164048695,3165.1858288271224,-10269.55369347974,8922.794034814124,-7739.8503112614535,6911.94169663688,10908.612419201425,-187500.02235174447
1741815629.468084,5206.436539463584,3444.381468818363,-9981.886742339939,9191.57376188919,-7448.160046119696,7194.199525618497,11158.147294300474,-187500.02235174447
1741815629.4681246,5125.523224535373,3481.64182682536,-9925.068607934549,9229.907003630044,-7391.811298347867,7241.428761652561,11171.7371549293,-187500.02235174447
1741815629.4681704,5115.0849598747445,3199.115776910279,-10214.97073351988,8958.221549775786,-7685.602627468423,6951.973670956335,10916.435529760782,-187500.02235174447
1741815629.4682112,5198.255800992943,3108.211232210545,-10316.917039980537,8878.917560448357,-7789.560590930056,6855.97292852079,10864.400668668828,-187500.02235174447
1741815629.4682517,5210.616315676727,3360.2047991996765,-10054.887539730971,9125.122025623563,-7523.820701100911,7112.302733934252,11098.848116260544,-187500.02235174447
1741815629.468292,5135.715620006993,3490.582524607483,-9918.139567153403,9237.506596744848,-7381.641254620702,7243.507473886904,11186.802230692176,-187500.02235174447
1741815629.4683344,5110.413445283585,3230.1176464697896,-10183.052442437702,8980.77445993119,-7652.61145265239,6976.873514279547,10939.346067827471,-187500.02235174447
1741815629.468384,5168.97501575649,3055.3940600626543,-10374.249264508398,8805.447376423763,-7843.763571234175,6789.923523655359,10800.854659182389,-187500.02235174447
1741815629.4684336,5212.024475577411,3278.5091732155292,-10154.263395579266,9020.515861572727,-7621.184899948228,7012.524546685761,11009.552897161591,-187500.02235174447
1741815629.468474,5134.150997895122,3466.0403091955554,-9938.569061585553,9212.360884232627,-7403.32244674235,7223.4803108549495,11168.697317683378,-187500.02235174447
1741815629.4685144,5094.253134042398,3256.3809462047752,-10142.193453573402,9020.247640639263,-7609.293771898005,7021.308782256697,10969.45386760877,-187500.02235174447
1741815629.4685545,5161.107201708222,3061.6749002545957,-10362.76046785837,8828.067341812533,-7827.893832670908,6815.046884423124,10809.705949986692,-187500.02235174447
1741815629.4686003,5237.728981701014,3233.649222093728,-10186.561666317186,9004.534364287181,-7653.997260808619,6992.363273187074,10988.475202140236,-187500.02235174447
1741815629.4686403,5169.869085534702,3497.086882243977,-9925.314477123557,9234.176186821007,-7385.776327344934,7257.678479871569,11196.279370341226,-187500.02235174447
1741815629.46868,5126.953736180512,3362.641139345305,-10073.014804484226,9106.100691092097,-7521.741988866567,7123.4562544174505,11050.098961603519,-187500.02235174447
1741815629.4687204,5168.527980867384,3092.877935514204,-10349.170607229544,8863.204284096275,-7806.5926202050005,6853.7377540752595,10829.889575229834,-187500.02235174447
1741815629.4687726,5266.093345414799,3198.847555976815,-10246.911376346514,8978.047547107642,-7704.780424211076,6953.828865746125,10950.432533077304,-187500.02235174447
1741815629.4688182,5211.309219754841,3484.8828297713794,-9948.694401823808,9239.004163623353,-7411.078502068342,7241.6746308415695,11190.825544694131,-187500.02235174447
1741815629.46886,5141.460018332007,3401.622581675361,-10022.924545159882,9151.653546292013,-7489.823697784388,7162.862379892156,11090.846191745542,-187500.02235174447
1741815629.4689004,5152.054745203823,3125.6455928856844,-10307.574010798218,8886.628912285438,-7778.317663469036,6884.426699212397,10854.811770297501,-187500.02235174447
1741815629.4689453,5247.541397516894,3168.9185701511587,-10273.331138292688,8943.357639713007,-7746.064096220029,6924.928060165413,10921.889355407877,-187500.02235174447
1741815629.4689867,5209.096397053766,3463.82748649448,-9963.044221764114,9223.849680882655,-7433.430246523649,7227.123645201164,11184.12002135754,-187500.02235174447
1741815629.469032,5135.49210256244,3459.938282959257,-9965.88289330994,9214.037265066776,-7430.032781366442,7219.702866042003,11149.988907574285,-187500.02235174447
1741815629.469072,5132.944003694535,3164.582331726829,-10263.965757365913,8927.063218005087,-7739.3809246278915,6917.84255717308,10883.265540989107,-187500.02235174447
1741815629.4691224,5220.764007659436,3119.6106218827513,-10322.437920860997,8894.586133311526,-7793.449794465279,6871.440335683863,10871.53087515007,-187500.02235174447
1741815629.4691625,5203.9554958290455,3395.2970379945086,-10031.239394097256,9161.063630707697,-7500.91016303422,7149.674850663526,11122.071578749606,-187500.02235174447
1741815629.4692025,5117.7895209538365,3463.805134750025,-9951.711887325275,9220.318105258717,-7421.695580684613,7222.675648054558,11158.460218722847,-187500.02235174447
1741815629.469248,5095.191907309521,3172.427794030642,-10253.50514096083,8938.976697799766,-7724.159386653828,6927.878490433513,10890.194581770253,-187500.02235174447
1741815629.4692876,5174.115916981211,3050.4543245380314,-10386.028633836346,8828.335562745997,-7856.057030684595,6803.625143006461,10807.537830774527,-187500.02235174447
1741815629.4693274,5210.437501721085,3322.497406303574,-10107.99528455678,9087.9957780833,-7572.100469124373,7074.282416615774,11058.883197174455,-187500.02235174447
1741815629.4693692,5128.1607303811,3470.801230764536,-9937.943212740805,9225.615468694625,-7404.842365365311,7231.415180136583,11169.032593850206,-187500.02235174447
1741815629.4694092,5107.306552804298,3238.9689372740913,-10182.448945337408,9002.075672397099,-7647.068220027473,7002.354502958597,10946.006887675154,-187500.02235174447
1741815629.4694645,5187.16933574311,3066.1228974012015,-10370.225950506443,8834.079961071011,-7834.778169963142,6822.892346726936,10812.835194210435,-187500.02235174447
1741815629.469509,5240.567653246839,3291.9872751220796,-10141.567604728652,9059.720821347335,-7609.517289342558,7046.901529658024,11030.652943927402,-187500.02235174447
1741815629.4695487,5156.7039080505265,3509.1344725053877,-9914.25036361818,9259.299547588773,-7378.199085974585,7270.553084677826,11202.694320999899,-187500.02235174447
1741815629.4695885,5125.210300112999,3316.7306562341046,-10111.459804947353,9080.954978579877,-7575.185009859206,7077.3222538616965,11014.850260597499,-187500.02235174447
1741815629.4696414,5193.986617801978,3108.5465083773743,-10342.845063548692,8882.13621164992,-7798.277771267626,6861.627919867983,10848.441523127738,-187500.02235174447
1741815629.4696877,5271.23424663952,3271.088394056367,-10198.475146111865,9043.873434528523,-7644.27425197056,7019.364180489085,11007.228315738239,-187500.02235174447
1741815629.4697297,5208.202327275554,3533.6543361728595,-9911.29993335008,9289.183829925518,-7369.5266091259255,7289.73088142048,11228.152957934495,-187500.02235174447
1741815629.4697697,5154.714602794004,3388.278590235542,-10038.190786622858,9165.936310998954,-7495.881020531777,7157.319147267241,11087.851057988531,-187500.02235174447
1741815629.4698195,5187.839888076769,3129.490092931997,-10312.737263767394,8916.401435899907,-7778.697643124777,6885.007844568235,10865.540607636049,-187500.02235174447
1741815629.4698596,5266.607435537271,3206.782425258449,-10228.873518571081,9005.651951509948,-7703.864002688409,6956.33226112512,10963.731821028212,-187500.02235174447
1741815629.4699063,5201.161527772132,3479.8536872689356,-9933.20464291628,9261.914701690042,-7405.7364351435235,7236.936061017044,11200.07916689863,-187500.02235174447
1741815629.4699464,5132.832244972258,3418.0511138500115,-9996.728300658262,9192.981921789877,-7465.706165517112,7177.882752166123,11112.929715267386,-187500.02235174447
1741815629.4699864,5141.437666587552,3126.785531852905,-10309.987999199391,8903.504479349194,-7775.8366198344975,6884.538457934673,10848.642688827837,-187500.02235174447
1741815629.4700267,5237.505464256462,3140.3083372483657,-10305.987036941891,8927.219680216274,-7774.942550056286,6894.4179289839185,10886.975930568688,-187500.02235174447
1741815629.4700713,5208.895231353668,3444.292061840542,-9993.733166901251,9209.566916175714,-7452.518636288481,7198.80398497629,11155.822712877121,-187500.02235174447
1741815629.4701164,5119.532957021351,3454.484457312162,-9985.775945875163,9203.308427728227,-7437.632374481246,7208.839918236723,11127.39129392997,-187500.02235174447
1741815629.4701676,5107.641828971127,3143.437581472109,-10296.487545548385,8914.546241110116,-7753.797799801565,6902.375150010008,10856.10817147591,-187500.02235174447
1741815629.4702077,5187.348149698752,3064.3571095892326,-10365.912063826569,8861.684365473315,-7827.603259992989,6821.171262403877,10827.47558682866,-187500.02235174447
1741815629.4702475,5176.149925726643,3345.027964714523,-10076.94871150836,9132.632211760547,-7536.427084973703,7108.279419932297,11082.866618974998,-187500.02235174447
1741815629.4702876,5104.043198113823,3450.058811910011,-9955.087000738025,9223.916736116022,-7426.948240631609,7218.071188696765,11144.915061582931,-187500.02235174447
1741815629.470333,5098.34350327772,3183.0895761358233,-10234.014419795802,8963.340099256051,-7707.015598656607,6946.832769731614,10895.53664869507,-187500.02235174447
1741815629.4703732,5172.104259980233,3048.2191500925005,-10381.357119245187,8839.042048340089,-7851.586681793533,6805.502689540707,10800.653493482292,-187500.02235174447
1741815629.470414,5205.676580152104,3312.260307343043,-10110.610438658052,9095.170688053453,-7578.336605827404,7070.482620058373,11047.684973202346,-187500.02235174447
1741815629.470454,5129.859462959703,3489.0626059845217,-9919.503023565178,9258.964271421943,-7384.591684888803,7251.084715257253,11183.494172512792,-187500.02235174447
1741815629.4705036,5113.654448229605,3260.717184629105,-10155.895072924504,9040.341858904583,-7618.79326329151,7017.53133744375,10966.615196062947,-187500.02235174447
1741815629.470549,5189.426861933096,3077.209362651034,-10354.087991009712,8870.602711510983,-7818.908431399875,6832.995335220735,10828.593174051426,-187500.02235174447
1741815629.4705894,5247.317880072342,3285.5723244634064,-10146.373229786543,9082.094917547098,-7610.389007376315,7043.5711197341825,11035.190348051829,-187500.02235174447
1741815629.4706335,5183.369539185708,3536.8506356299686,-9886.064813860037,9312.519051136858,-7347.756010026456,7297.755157679935,11237.406580138992,-187500.02235174447
1741815629.4706752,5148.366707368697,3358.707232321171,-10073.730060306796,9134.107426894598,-7532.850805860854,7115.253164202352,11053.13879884944,-187500.02235174447
1741815629.4707148,5204.626048162705,3122.225775984022,-10344.432037405018,8896.173107167853,-7787.884210095908,6872.334405462076,10851.190787695741,-187500.02235174447
1741815629.4707603,5268.32851986033,3251.329451957876,-10216.669466098485,9045.371001407028,-7649.2810427285485,7012.4574914523955,10997.482955155725,-187500.02235174447
1741815629.470803,5199.999237060456,3525.5183011911276,-9910.741139738697,9309.814490057766,-7376.008615017965,7290.826116898789,11232.668010314466,-187500.02235174447
1741815629.4708529,5155.183989427565,3421.1133028403883,-10015.973152634282,9200.849735838145,-7493.645846086246,7175.111135853665,11106.894744264453,-187500.02235174447
1741815629.4708927,5186.968170043012,3150.3219187643435,-10310.747958510872,8934.908680308901,-7777.155372757361,6891.959237093835,10870.301529205028,-187500.02235174447
1741815629.4709334,5275.145801919199,3216.5054340965075,-10238.976507064881,9015.151442903452,-7702.634656743367,6958.634490804016,10963.038916950098,-187500.02235174447
1741815629.4709785,5214.103187811755,3506.832242826491,-9944.268756421658,9289.094422947695,-7403.367150231261,7252.314061202295,11210.629190281534,-187500.02235174447
1741815629.4710183,5158.201474929032,3454.640919523349,-9979.204533005302,9241.284041557794,-7450.417572309682,7206.5153368133715,11141.785817359189,-187500.02235174447
1741815629.4710584,5154.111105693711,3150.590139697807,-10281.422469785508,8949.392610715939,-7761.6879655942885,6904.856193644548,10878.169343253296,-187500.02235174447
1741815629.4710982,5233.728019443514,3147.684412918617,-10299.817955472226,8947.872692092978,-7775.747212856676,6897.949504607857,10897.324788251495,-187500.02235174447
1741815629.4711382,5202.212059761531,3438.9276431712683,-9995.297789013122,9223.894384371566,-7464.365060849794,7191.114984883665,11156.560320444147,-187500.02235174447
1741815629.4711976,5108.53589874934,3459.6924137702485,-9962.865407808473,9237.931279889499,-7437.744133203523,7212.595011305215,11146.30086973916,-187500.02235174447
1741815629.4712377,5100.243401556421,3161.9001223921923,-10265.642138200063,8953.460628206805,-7741.05730546204,6913.439263515385,10879.063413031508,-187500.02235174447
1741815629.471278,5185.381196186686,3077.857563240238,-10356.949014299991,8885.064290173566,-7827.0221146371505,6825.731018272761,10835.52221483257,-187500.02235174447
1741815629.4713187,5185.895286309157,3352.6946130626934,-10079.921493520915,9149.552482313215,-7539.243404775072,7106.424225142507,11085.347662609538,-187500.02235174447
1741815629.4713588,5096.2424392989205,3461.771126004592,-9957.612747861474,9238.646535712069,-7423.37196151876,7219.345238130718,11149.474817451814,-187500.02235174447
1741815629.4714043,5073.24249425441,3196.6794367646503,-10235.534338418764,8977.376994773984,-7703.819299199498,6944.105856908066,10897.436546973771,-187500.02235174447
1741815629.471446,5162.761230797914,3064.8264962227936,-10379.881904111136,8856.744629948691,-7848.770361992164,6803.625143006461,10806.956685418689,-187500.02235174447
1741815629.4714863,5211.040998821378,3325.2019673826658,-10115.863098605048,9110.302819049695,-7582.806954718466,7063.799448466236,11051.127141848463,-187500.02235174447
1741815629.471536,5131.379381582664,3499.903202045346,-9920.464148576755,9275.92924546352,-7387.609170390269,7251.8893780576445,11188.724480715333,-187500.02235174447
1741815629.471576,5118.191852354033,3292.210792566633,-10133.968011613848,9075.74702212179,-7601.224792149639,7044.845169168136,10990.151582974386,-187500.02235174447
1741815629.4716303,5185.023568275401,3094.7107785595394,-10346.264880450355,8889.780508253636,-7810.504175484679,6844.819408037592,10838.696162545224,-187500.02235174447
1741815629.4716709,5250.625938251726,3291.3837780217864,-10155.828017691138,9097.361159010072,-7611.953629488186,7041.939442388945,11036.263231785684,-187500.02235174447
1741815629.4717112,5185.157678742133,3546.1266095789206,-9889.037595872593,9324.097254764707,-7350.527626338915,7296.995198368454,11237.563042350179,-187500.02235174447
1741815629.4717555,5144.20928290001,3401.5108229530842,-10055.580443809085,9163.05293596422,-7520.110311521329,7135.705010378959,11068.00270891222,-187500.02235174447
1741815629.4717956,5185.828231075791,3148.7125931635615,-10308.378673598609,8934.014610530689,-7778.6529396358665,6887.377129480497,10869.921549549288,-187500.02235174447
1741815629.4718404,5270.5189908169505,3259.4654869396077,-10183.052442437702,9072.595426153592,-7649.549263662013,7007.5848111611385,11011.27398148465,-187500.02235174447
1741815629.4718904,5209.588135431783,3535.6659931738373,-9884.790764426085,9334.84844384771,-7351.7346205395015,7291.943704121555,11250.281184945248,-187500.02235174447
1741815629.4719303,5152.054745203823,3437.519483270584,-9982.423184206866,9231.225756552907,-7451.088124643341,7191.293798839307,11130.408779431436,-187500.02235174447
1741815629.4719708,5179.055652505834,3165.7446224385053,-10277.242693572367,8956.321651497085,-7745.080619463995,6911.315847792131,10886.551247424037,-187500.02235174447
1741815629.472011,5264.2381506250085,3207.497681081019,-10239.937632076459,9012.625695780003,-7702.902877676831,6954.030031446223,10953.159445900852,-187500.02235174447
1741815629.4720562,5212.180937788598,3499.8361468119797,-9935.618631317453,9286.12164093514,-7397.823917606344,7249.229520467463,11206.628228024034,-187500.02235174447
1741815629.4720635,5129.367724581686,3449.902349698824,-9971.761402101685,9236.701933944456,-7434.369019790772,7204.704845512491,11137.20370974585,-187500.02235174447
1741815629.472071,5127.289012347343,3150.277215275433,-10292.553638524252,8942.329459468063,-7747.986346243185,6901.905763376447,10866.05469775852,-187500.02235174447
1741815629.4720783,5207.50942319744,3115.788473580894,-10336.09483672319,8927.130273238454,-7784.06206179405,6862.298472201643,10867.082878003464,-187500.02235174447
1741815629.4720876,5182.676635107593,3409.0210090900673,-10018.521251502187,9206.594134163159,-7479.273674401484,7153.720516409936,11132.643953876968,-187500.02235174447
1741815629.4720957,5103.4620527579855,3458.954806203223,-9957.277471694646,9246.44729452697,-7419.013371349975,7209.018732192366,11145.49620693877,-187500.02235174447
1741815629.472104,5091.705035174494,3172.3160353083654,-10260.210664297421,8959.808523632113,-7724.137034909372,6920.167138596433,10876.15768625232,-187500.02235174447
1741815629.4721115,5184.531829897383,3081.858525497738,-10360.793514346304,8882.985577939222,-7825.949230903296,6831.095436942034,10827.721456017669,-187500.02235174447
1741815629.4721189,5199.663960893627,3355.5332846085175,-10079.116830720524,9155.140418427041,-7541.411523987237,7105.686617575481,11082.28547361916,-187500.02235174447
1741815629.4721262,5126.193776869032,3518.186929009787,-9925.560346312564,9285.205219412474,-7383.943484299599,7260.874779328678,11183.7400417018,-187500.02235174447
1741815629.4721348,5112.358047051197,3254.838675837359,-10183.790050004727,9038.151387947964,-7643.201368236705,7003.203869247898,10948.733800498701,-187500.02235174447
1741815629.4721425,5188.353978199241,3082.7078917870394,-10360.391182946109,8886.785374496625,-7818.439044766313,6826.312163628598,10828.615525795882,-187500.02235174447
1741815629.472152,5226.709571684548,3321.8268539699143,-10124.647334175985,9119.489386020827,-7583.49985879658,7064.984090922367,11051.99885988222,-187500.02235174447
1741815629.4721591,5146.533864323362,3520.802083111058,-9900.504040778165,9317.615248872668,-7359.557731098858,7282.48891621696,11216.999437451297,-187500.02235174447
1741815629.4721668,5113.0285993848565,3306.3147433179315,-10120.62402017403,9114.147319096008,-7579.990634917097,7065.118201389098,11007.630647138436,-187500.02235174447
1741815629.4721751,5179.368576928208,3096.856546027249,-10350.690525852506,8908.690084062826,-7812.001742363184,6845.5793673490725,10835.81278751049,-187500.02235174447
1741815629.4721825,5253.531665030917,3284.03005409599,-10169.663747508974,9097.048234587697,-7630.125597730351,7032.0599713397,11021.287563000627,-187500.02235174447
1741815629.4721897,5172.998329758445,3529.027525070611,-9902.850973945973,9326.354780954693,-7364.363356156749,7282.578323194782,11226.744798033811,-187500.02235174447
1741815629.4721973,5127.221957113977,3377.7062151081823,-10054.75342926424,9177.313348926706,-7515.952887052642,7125.870242818623,11069.679089746367,-187500.02235174447
1741815629.4722054,5163.074155220289,3117.5319096484077,-10338.911156524558,8917.653133589403,-7798.233067778715,6859.839780311559,10844.529967848059,-187500.02235174447
1741815629.4722157,5253.017574908445,3236.6667075951946,-10222.033884767758,9043.091123472586,-7686.072014101985,6977.611121846571,10974.326547900027,-187500.02235174447
1741815629.9479356,5184.151850241644,3508.732141105192,-9929.449549847788,9299.957370752976,-7393.331216970828,7254.973918792477,11207.41053907997,-187500.02235174447
1741815629.9486306,5119.9576401660015,3416.8217679049694,-10011.50280374322,9212.025608065798,-7474.803325510422,7165.946920626989,11103.027892473685,-187500.02235174447
1741815629.9486754,5134.709791506504,3122.0693137728354,-10312.580801556207,8926.593831371527,-7778.0047390466625,6870.5239141611955,10851.8613400294,-187500.02235174447
1741815629.948717,5224.720266428026,3147.2820815184214,-10292.307769335242,8959.517950954194,-7756.636471347389,6893.367396994519,10903.672683676801,-187500.02235174447
1741815629.948758,5181.73786184047,3452.316338099997,-9978.913960327383,9239.406495023548,-7440.359287304794,7199.5862960322265,11166.484494982302,-187500.02235174447
1741815629.9488096,5107.3959597821195,3447.0860298974553,-9982.780812118152,9227.381256506593,-7438.638202981735,7190.064452894266,11127.167776485418,-187500.02235174447
1741815629.9488559,5112.670971473572,3163.7553171819827,-10293.380653069098,8931.041828518133,-7749.573320099512,6888.539420192173,10859.326822677473,-187500.02235174447
1741815629.9488962,5194.053673035344,3113.128615990712,-10343.76148507136,8907.930124751345,-7802.524602714134,6842.874806269981,10855.124694719874,-187500.02235174447
1741815629.9489367,5173.065384991812,3380.0084447870786,-10039.04015291216,9189.115069999109,-7498.943209522154,7136.330859223707,11119.501128137246,-187500.02235174447
1741815629.9489768,5102.031541112846,3468.5213528300947,-9953.768247815162,9245.106189859653,-7411.056150323886,7221.692171298525,11155.040401821185,-187500.02235174447
1741815629.9490163,5098.164689322078,3189.4821750500414,-10241.83753035516,8981.154439586931,-7699.080729374973,6936.215691115343,10899.269390019106,-187500.02235174447
1741815629.9490664,5185.180030486587,3070.213266636523,-10360.61470039066,8893.066214688566,-7818.729617444232,6819.9866199477465,10835.566918321481,-187500.02235174447
1741815629.9491065,5202.435577206084,3347.844284515892,-10079.966197009826,9157.57675857267,-7539.735143153089,7093.795489525258,11090.28739813416,-187500.02235174447
1741815629.94916,5122.237518100443,3509.514452161128,-9911.746968239186,9293.810641027767,-7372.298225438384,7251.665860613091,11202.560210533167,-187500.02235174447
1741815629.9492002,5109.586430738739,3266.2157137651106,-10159.426648548442,9057.195074223886,-7618.480338869136,7007.629514650049,10974.728879300223,-187500.02235174447
1741815629.9492412,5190.723263111504,3102.3550751632542,-10340.296964680787,8905.136156694432,-7799.752986401676,6840.058486468612,10849.872034772878,-187500.02235174447
1741815629.9492884,5243.8086561928585,3334.254423887065,-10111.415101458442,9132.945136182921,-7567.764230700044,7075.981149194378,11070.148476379929,-187500.02235174447
1741815629.9493308,5160.995442985945,3562.4210312868395,-9887.00358712716,9327.517071666369,-7340.245823889473,7310.607410741736,11236.825434783153,-187500.02235174447
1741815629.949371,5120.248212843921,3349.7218310501376,-10100.350987953067,9136.767284484778,-7551.559215969946,7108.815861799224,11038.52075797567,-187500.02235174447
1741815629.9494112,5172.819515802803,3117.598964881774,-10339.33583966921,8917.519023122672,-7792.980407831718,6867.819353082104,10857.561034865503,-187500.02235174447
1741815629.9494507,5242.668717225638,3269.4120132222192,-10170.2001893759,9088.196943783396,-7626.45991163968,7029.981259105356,11024.774435135656,-187500.02235174447
1741815629.9495065,5175.524076881895,3554.933196894312,-9885.371909781923,9327.293554221817,-7343.687992535591,7307.344056051262,11243.46390288638,-187500.02235174447
1741815629.9495466,5113.587392996239,3411.613811446883,-10024.64562948294,9183.460078651915,-7484.325168648383,7160.8507228911785,11091.472040590292,-187500.02235174447
1741815629.9495864,5139.984803197957,3122.650459128673,-10309.496260821374,8914.613296343481,-7773.601445388967,6876.916513075414,10860.131485477863,-187500.02235174447
1741815629.949649,5217.657115180149,3206.8271287473594,-10227.845338326137,9023.64510579647,-7689.067147858996,6957.785124514714,10968.269225152639,-187500.02235174447
1741815629.9496918,5148.523169579884,3499.187946222776,-9915.770282241141,9302.483117876425,-7376.36624292925,7262.171180507086,11223.548498576702,-187500.02235174447
1741815629.949738,5091.906200874591,3443.1744746177765,-9971.649643379407,9239.317088045727,-7434.6819442131455,7209.085787425732,11139.595346402568,-187500.02235174447
1741815629.949778,5119.175329110066,3159.620244457751,-10274.046394115257,8956.142837541442,-7737.883357749386,6913.103987348555,10885.903046834832,-187500.02235174447
1741815629.949818,5200.334513227286,3164.0235381154466,-10278.382632539588,8972.973701116289,-7741.213767673227,6907.828975657103,10918.424835017304,-187500.02235174447
1741815629.9498677,5157.776791784381,3461.905236471324,-9967.760439844185,9251.968175407432,-7429.697505199612,7205.4648048239715,11177.392146276492,-187500.02235174447
1741815629.9499075,5090.676854929549,3476.0762424559884,-9948.984974501727,9254.829198697711,-7408.6198101782575,7223.279145154852,11157.521445455724,-187500.02235174447
1741815629.9499533,5080.5738664357505,3166.303416049888,-10270.537170235773,8951.739543883747,-7729.300287878548,6910.533536736195,10878.526971164581,-187500.02235174447
1741815629.9499931,5173.244198947454,3109.4852816444973,-10338.66528733555,8904.644418316415,-7792.01928282014,6852.463704641307,10858.499808132627,-187500.02235174447
1741815629.9500327,5182.274303707398,3404.841232876925,-10034.07806564308,9187.86337230961,-7486.537991349458,7156.827408889224,11129.06767476412,-187500.02235174447
1741815629.9500732,5114.704980219005,3507.994533538167,-9914.20566012927,9294.905876506076,-7374.399289417182,7269.3237387327845,11202.113175644063,-187500.02235174447
1741815629.9501152,5105.96544813698,3234.7444575720383,-10196.329378644155,9034.485701857293,-7657.819409110476,6987.66940685146,10952.533597056103,-187500.02235174447
1741815629.9501607,5192.086719523278,3107.630086854707,-10335.491339622897,8916.021456244165,-7798.233067778715,6851.524931374184,10864.601834368925,-187500.02235174447
1741815629.950216,5234.622089221727,3381.997750043601,-10053.300565874644,9187.192819975951,-7514.5670788964135,7126.093760263177,11123.658552605933,-187500.02235174447
1741815629.9502563,5165.331681410275,3569.9088656793674,-9855.934662334283,9352.841598134231,-7320.285716090884,7317.938782923077,11260.831208328153,-187500.02235174447
1741815629.9502964,5139.358954353208,3332.935670964202,-10109.3363892241,9118.483557520338,-7574.246236592083,7081.479678330384,11028.574231693057,-187500.02235174447
1741815629.9503365,5205.8330423632915,3143.7952093833937,-10324.404874373064,8932.226470974263,-7787.213657762249,6880.738661377271,10873.028442028575,-187500.02235174447
1741815629.9503818,5258.091420899799,3346.4584763596627,-10106.207145000357,9149.306613124207,-7571.340509812893,7090.554486579238,11082.24077013025,-187500.02235174447
1741815629.9504218,5162.090678464256,3560.0070428856666,-9869.993909596671,9351.008755088897,-7336.513082565437,7315.25657358844,11257.32198444867,-187500.02235174447
1741815629.9504633,5116.604878497706,3376.610979629872,-10066.242225914268,9165.310462154206,-7531.733218638089,7125.289097462785,11065.409906555404,-187500.02235174447
1741815629.950503,5153.976995226979,3118.42597942662,-10332.697371565982,8922.324648180562,-7798.881268367919,6869.875713571992,10857.203406954219,-187500.02235174447
1741815629.9505532,5223.580327460805,3255.5092281710185,-10194.898866999016,9063.36415569355,-7660.769839378577,7007.741273372326,11002.55680114708,-187500.02235174447
1741815629.9505987,5158.0673644623,3543.869083388935,-9896.90540992086,9317.950525039498,-7364.631577090214,7296.592866968259,11236.154882449495,-187500.02235174447
1741815629.9506388,5098.455261999996,3420.0404191065336,-10022.343399804044,9193.25014272334,-7490.248380929039,7171.8254294187345,11098.266970904706,-187500.02235174447
1741815629.9506788,5126.77492222487,3124.796226596383,-10319.822766759726,8921.072950491065,-7786.878381595419,6880.4480886993515,10858.097476732431,-187500.02235174447
1741815629.9507196,5210.929240099102,3186.4423378041197,-10256.187350295468,8999.102890384542,-7720.091369162962,6945.715182508849,10946.588033030992,-187500.02235174447
1741815629.9507632,5146.39975385663,3482.6029518369382,-9948.448532634799,9270.520123305336,-7404.395330476204,7245.6085378657035,11196.636998252512,-187500.02235174447
1741815629.9508088,5067.676909885038,3415.346552770919,-10004.059672839603,9205.185974262473,-7462.219293382084,7184.945903414,11110.493375121758,-187500.02235174447
1741815629.9508483,5079.970369335458,3124.9750405520253,-10314.681865535005,8914.9038690214,-7774.875494822919,6885.633693412983,10846.742790549135,-187500.02235174447
1741815629.9508982,5171.88074253568,3124.3491917072765,-10324.315467395243,8924.246898203719,-7785.023186805629,6876.447126441852,10876.135334507864,-187500.02235174447
1741815629.9509385,5137.190835141044,3409.423340490263,-10016.397835778933,9203.554296917237,-7479.43013661267,7168.986757872911,11136.555509156646,-187500.02235174447
1741815629.9509783,5067.587502907218,3447.7789339755695,-9968.699213111307,9229.996410607864,-7435.777179691456,7209.33165661474,11140.7799888587,-187500.02235174447
1741815629.951023,5080.015072824368,3177.0993086218014,-10259.920091619504,8957.752163142224,-7723.935869209275,6930.583051512605,10890.529857937081,-187500.02235174447
1741815629.9510658,5175.747594326448,3107.920659532626,-10353.14921774259,8893.289732133118,-7810.3477132734915,6855.011803509213,10848.709744061201,-187500.02235174447
1741815629.9511056,5185.403547931141,3384.031758789034,-10060.073144444603,9170.585473845658,-7505.626381114291,7145.495074450383,11111.700369322345,-187500.02235174447
1741815629.9511456,5116.828395942259,3508.5533271495497,-9928.689590536307,9277.40446059757,-7362.530513111415,7270.8660091002,11193.59716100659,-187500.02235174447
1741815629.9511852,5109.318209805276,3246.456771666619,-10206.901753771515,9022.9298499739,-7643.447237425714,6998.979389545845,10944.59872777447,-187500.02235174447
1741815629.9512415,5203.21788826202,3115.5649561363407,-10343.247394948889,8908.019531729165,-7799.484765468213,6862.745507090749,10862.232549456663,-187500.02235174447
1741815629.9512815,5241.238205580497,3367.5585231254727,-10072.456010872844,9165.019889476287,-7541.411523987237,7118.181242725997,11111.409796644426,-187500.02235174447
1741815629.9513257,5154.312271393808,3556.050784117077,-9876.207694555247,9337.530653182346,-7344.9843937139985,7311.099149119753,11254.460961158391,-187500.02235174447
1741815629.9513662,5124.87502394617,3334.61205179835,-10123.350932997577,9106.413615514472,-7588.8195739769435,7073.768326493303,11022.27103975666,-187500.02235174447
1741815629.9514065,5196.0876817807775,3124.818578340838,-10336.765389056849,8912.221659686764,-7811.107672584972,6865.964158292313,10860.310299433506,-187500.02235174447
1741815629.9514515,5245.082705626811,3297.686969958183,-10152.274090322744,9105.161917824975,-7619.732036558633,7055.842227440146,11047.23793831324,-187500.02235174447
1741815629.9514916,5153.9993469714345,3532.2014727832643,-9906.04727340308,9321.750321596899,-7369.191332959096,7293.77654716689,11235.618440582568,-187500.02235174447
1741815629.9515312,5104.736102191938,3347.3748978823305,-10084.503601134253,9143.964546199388,-7559.047050362475,7109.93344902199,11052.647060471423,-187500.02235174447
1741815629.9515808,5147.7185067794935,3090.598057579763,-10356.300813710788,8894.608485055982,-7825.591602992011,6845.244091182243,10837.980906722654,-187500.02235174447
1741815629.951622,5233.7727229324255,3222.428646377164,-10231.756893605816,9030.350629133061,-7690.274142059582,6974.034842733722,10976.427611878826,-187500.02235174447
1741815629.951678,5170.986672757468,3505.7817108370914,-9945.54280585561,9284.422908356537,-7393.688844882113,7258.907825816611,11207.701111757888,-187500.02235174447
1741815629.951718,5100.019884111868,3396.749901384104,-10058.620281055008,9167.545636599736,-7500.753700823034,7149.294871007785,11079.111525906506,-187500.02235174447
1741815629.951759,5107.664180715583,3104.299676930866,-10350.087028752212,8889.154659408887,-7803.396320747891,6850.720268573794,10831.968287464177,-187500.02235174447
1741815629.9517999,5194.9700945580125,3144.689279161606,-10303.505993307352,8953.505331695716,-7759.318680682026,6899.268257530721,10907.360721511928,-187500.02235174447
1741815629.95184,5134.329811850764,3427.327087798964,-10002.115071071992,9220.653381425545,-7466.041441683941,7188.388072060117,11154.30279425416,-187500.02235174447
1741815629.9518895,5067.43104069603,3405.131805554844,-10018.275382313179,9187.997482776342,-7486.828564027377,7163.354118270174,11101.731491295277,-187500.02235174447
1741815629.951939,5084.53012520434,3118.5377381488966,-10317.274667891821,8910.925258508356,-7787.615989162445,6874.658986885427,10849.67086907278,-187500.02235174447
1741815629.9519792,5181.961379285023,3108.658267099651,-10338.106493724168,8910.388816641429,-7807.710207427765,6861.650271612439,10869.742735593645,-187500.02235174447
1741815629.952021,5172.707757080527,3412.8431573919247,-10021.35992304801,9201.833212594178,-7488.080261716875,7171.244284062896,11143.35043947106,-187500.02235174447
1741815629.9520607,5110.301686561309,3478.579637834983,-9949.342602413011,9262.227626112417,-7413.917173614165,7240.959375019,11174.240550308294,-187500.02235174447
1741815629.9521065,5112.53686100684,3206.49185258053,-10230.59460289414,8999.125242128997,-7694.8338979284645,6968.268092664253,10927.276125821607,-187500.02235174447
1741815629.9521465,5208.135272042188,3120.258822471955,-10329.769293042338,8914.881517276945,-7787.683044395811,6874.4578211853295,10874.503657162626,-187500.02235174447
1741815629.9521866,5233.325688043319,3404.707122410193,-10049.366658850511,9192.266665967307,-7501.044273500953,7161.901254880579,11130.699352109355,-187500.02235174447
1741815629.9522269,5154.0664022048,3535.88951061839,-9914.607991529465,9316.832937816733,-7367.961987014054,7306.852317673245,11218.653466540989,-187500.02235174447
1741815629.9522772,5126.305535591309,3277.816269137415,-10170.356651587088,9069.399126696484,-7640.139179246328,7046.141570346543,10982.619045092946,-187500.02235174447
1741815629.9523225,5189.024530532901,3110.5134618894413,-10349.192958974,8912.355770153496,-7816.852070909986,6864.511294902718,10861.450238400726,-187500.02235174447
1741815629.9523623,5231.872824653724,3337.6295372998165,-10116.533650938709,9144.277470621762,-7576.369652315338,7093.840193014168,11084.297130620138,-187500.02235174447
1741815629.952402,5158.603806329227,3542.1032955769656,-9894.737290708696,9331.428626946048,-7347.733658282002,7305.086529861275,11244.17915870895,-187500.02235174447
1741815629.9524455,5114.079131374256,3321.1339498918,-10118.880584106515,9110.034598116232,-7580.460021550659,7085.681806287981,11024.170938035362,-187500.02235174447
1741815629.952486,5166.292806421853,3106.1325199762014,-10354.713839854461,8892.9991594552,-7819.601335477989,6864.757164091727,10845.602851581914,-187500.02235174447
1741815629.952531,5241.796999191881,3285.5723244634064,-10177.44215457942,9070.628472641525,-7629.0303622520405,7042.118256344588,11025.333228747038,-187500.02235174447
1741815629.952571,5178.385100172174,3539.286975775597,-9915.591468285498,9304.383016155127,-7357.009632230954,7301.040864114865,11227.41535036747,-187500.02235174447
1741815629.9526212,5119.86823318818,3373.5934941284054,-10069.617339327018,9150.401848602516,-7522.032561544485,7146.389144228595,11065.387554810948,-187500.02235174447
1741815629.9526613,5130.597070526728,3103.003275752458,-10352.90334855358,8889.936970464823,-7810.459471995769,6867.037042026168,10837.042133455532,-187500.02235174447
1741815629.952701,5218.729998914004,3219.4558643646083,-10242.530434433274,9011.68692251288,-7690.810583926509,6974.280711922731,10965.698774540278,-187500.02235174447
1741815629.9527469,5154.893416749646,3493.1976787087538,-9944.425218632845,9275.996300696886,-7387.564466901358,7257.477314171471,11205.108309401074,-187500.02235174447
1741815629.9527888,5083.725462403949,3398.806261873992,-10036.626164510986,9182.275436195783,-7490.002511740031,7169.210275317464,11092.500220835236,-187500.02235174447
1741815629.952829,5095.705997431994,3121.3764096947207,-10324.315467395243,8901.604581070493,-7800.915277113352,6880.068109043612,10845.37933413736,-187500.02235174447
1741815629.9528685,5191.55027765635,3168.9856253845246,-10284.37290005361,8959.450895720827,-7759.29632893757,6922.223499086321,10915.563811727025,-187500.02235174447
1741815629.9529083,5170.0255477458895,3482.424137881296,-9959.557349629087,9255.253881842362,-7429.563394732881,7235.19262494953,11188.031576637219,-187500.02235174447
1741815629.9529653,5104.557288236295,3473.7516610326365,-9952.91888152586,9248.838931183689,-7422.835519651833,7237.405447650605,11158.6837361674,-187500.02235174447
1741815629.9530094,5090.296875273809,3176.875791177248,-10263.384612010075,8958.48977070925,-7728.249755889149,6938.450865560873,10896.341311495462,-187500.02235174447
1741815629.9530444,5185.850582820247,3149.941939108603,-10304.51182180784,8934.193424486331,-7769.980462787207,6903.582144210594,10898.129451051886,-187500.02235174447
1741815629.9530518,5192.26553347892,3450.6846607547595,-9990.045129066126,9230.130521074596,-7456.9219299461765,7215.701903784502,11170.328995028614,-187500.02235174447
1741815629.9530592,5127.065494902789,3543.220882799731,-9897.19598259878,9306.84170804521,-7359.98241424351,7303.499556004948,11218.385245607526,-187500.02235174447
1741815629.953068,5114.056779629801,3262.4382689521635,-10185.913465727981,9033.92690824591,-7649.124580517362,7022.783997390748,10965.341146628994,-187500.02235174447
1741815629.9530756,5207.308257497341,3150.7913053979046,-10312.580801556207,8938.57436639957,-7769.175799986816,6908.365417524031,10894.910799850322,-187500.02235174447
1741815629.9530828,5247.206121350065,3445.230835107665,-10024.913850416404,9221.256878525839,-7470.24356964154,7203.162575145076,11160.740096657288,-187500.02235174447
1741815629.953092,5168.59503610075,3594.741653769214,-9862.103743803948,9351.791066144833,-7312.239088086973,7353.969794985032,11263.89339731853,-187500.02235174447
1741815629.9530995,5137.8613874747025,3336.5343018215067,-10111.124528780525,9104.491365491314,-7579.521248283536,7091.672073802004,11026.473167714259,-187500.02235174447
1741815629.953108,5206.481242952495,3166.7951544279044,-10296.196972870466,8946.799808359125,-7761.576206872011,6919.004847884757,10900.006997586132,-187500.02235174447
1741815629.9531155,5241.796999191881,3384.411738444774,-10085.956464523848,9165.802200532222,-7546.284204278494,7144.757466883358,11104.525459352191,-187500.02235174447
1741815629.9531229,5168.662091334116,3602.497709095205,-9856.269938501113,9367.727859941466,-7317.558803267337,7370.443030648593,11273.169371267482,-187500.02235174447
1741815629.95313,5113.386227296141,3371.3359679384193,-10072.56776959512,9152.547616070226,-7536.49414020707,7135.906176079056,11060.783095453155,-187500.02235174447
1741815629.953138,5158.983785984968,3132.686392389106,-10319.196917914978,8927.599659872016,-7786.364291472947,6894.596742939561,10873.028442028575,-187500.02235174447
1741815629.9531467,5220.048751836866,3284.8347168963815,-10170.736631242828,9083.03369081422,-7634.327725687948,7049.896663415035,11025.8026153806,-187500.02235174447
1741815629.953156,5156.078059205778,3557.3248335510298,-9888.970540639228,9327.114740266174,-7346.839588503789,7324.867823704222,11243.530958119745,-187500.02235174447
1741815629.9531636,5097.136509077133,3401.6896369087267,-10051.043039684659,9168.260892422306,-7506.185174725673,7167.51154273886,11074.864694459999,-187500.02235174447
1741815629.9531708,5120.762302966393,3127.813712097849,-10343.314450182253,8898.09535719101,-7800.40118699088,6886.661873657928,10842.652421313813,-187500.02235174447
1741815630.4285736,5194.813632346825,3194.466614063575,-10267.474981245397,8986.138878600465,-7725.5898982989675,6959.886188493513,10936.127416625908,-187500.02235174447
1741815630.4293234,5133.256928116909,3482.8711727704017,-9962.440724663822,9263.076992401719,-7411.547888701903,7259.86895082819,11186.131678358517,-187500.02235174447
1741815630.4293742,5070.806154108782,3409.490395723629,-10022.186937592858,9186.276398453283,-7479.318377890394,7188.365720315662,11093.014310957707,-187500.02235174447
1741815630.429418,5076.90818034508,3120.080008516313,-10337.033609990312,8895.681368789838,-7773.176762244316,6889.724062648304,10835.164586921286,-187500.02235174447
1741815630.4294653,5175.233504203976,3140.3530407372764,-10328.741112797394,8922.704627836303,-7758.53636962609,6899.737644164282,10880.33746246546,-187500.02235174447
1741815630.4295068,5155.273396405387,3456.1384864018546,-10002.472698983276,9220.787491892277,-7441.476874527559,7220.641639309125,11157.186169288894,-187500.02235174447
1741815630.4295473,5089.693378173516,3464.095707427944,-9984.345434230023,9223.424997738004,-7425.048342352909,7239.037124995843,11138.611869646535,-187500.02235174447
1741815630.429597,5093.157898564088,3172.1819248416336,-10291.078423390201,8938.708476866303,-7735.134093181383,6941.714220251349,10874.05662227352,-187500.02235174447
1741815630.4296377,5189.672731122105,3118.8283108268156,-10345.147293227588,8902.543354337617,-7805.564439960056,6878.078803787089,10859.975023266677,-187500.02235174447
1741815630.429684,5204.447234207062,3416.4417882492294,-10028.847757440539,9198.167526503506,-7492.058872229919,7178.240380077408,11139.908270824943,-187500.02235174447
1741815630.4297245,5140.878872976169,3523.059609301044,-9915.278543863124,9290.636693315113,-7376.209780718063,7286.623988941192,11205.734158245821,-187500.02235174447
1741815630.4297645,5127.557233280806,3253.0505362809345,-10204.107785714601,9022.12518717351,-7658.713478888689,7009.305895484197,10951.281899366606,-187500.02235174447
1741815630.4298043,5214.259650022942,3129.2218719985335,-10338.687639080006,8911.23818293073,-7798.948323601285,6885.477231201796,10868.938072793255,-187500.02235174447
1741815630.4298463,5259.812505222858,3400.281477008042,-10061.123676434003,9180.017910005798,-7516.668142875212,7162.996490358889,11123.636200861478,-187500.02235174447
1741815630.4298964,5190.656207878138,3574.513325037161,-9874.28544453209,9340.79400787282,-7338.50238782196,7339.888195978188,11257.009060026296,-187500.02235174447
1741815630.4299464,5156.301576650331,3324.464359815641,-10115.796043371683,9106.435967258927,-7588.618408276846,7084.810088254224,11031.144682305418,-187500.02235174447
1741815630.4299865,5214.304353511853,3130.9653080660473,-10328.47289186393,8916.24497368872,-7795.930838099818,6879.3305014765865,10879.778668854078,-187500.02235174447
1741815630.430026,5271.591874550805,3343.6645083027493,-10120.042874818191,9130.24057510383,-7585.846791964387,7096.544754093261,11085.213552142806,-187500.02235174447
1741815630.4300666,5198.009931803934,3557.0789643620215,-9883.315549292034,9330.691019379023,-7350.192350172085,7320.442178302072,11255.869121059075,-187500.02235174447
1741815630.430112,5150.043088202845,3362.1717527117435,-10080.390880154477,9140.656488020002,-7544.92074786672,7125.154986996054,11061.118371619985,-187500.02235174447
1741815630.4301517,5176.0158152599115,3119.7000288605727,-10341.61571760365,8900.889325247923,-7803.485727725712,6874.368414207508,10859.10330523292,-187500.02235174447
1741815630.4301915,5246.446162038585,3263.488800941563,-10204.510117114796,9052.07652474362,-7658.42290621077,7020.191195033932,11008.480013427738,-187500.02235174447
1741815630.4302313,5187.079928765289,3531.441513471784,-9916.373779341433,9303.332484165727,-7367.738469569501,7294.983541367476,11233.495024859312,-187500.02235174447
1741815630.4302833,5128.20543387001,3398.4933374516177,-10034.636859254464,9169.110258711607,-7494.450508886637,7160.403688002073,11089.929770222876,-187500.02235174447
1741815630.4303284,5135.670916518083,3107.6971420880727,-10348.18713047351,8882.42678432784,-7802.032864336117,6866.187675736866,10836.818616010978,-187500.02235174447
1741815630.4303694,5207.956458086545,3167.0633753613683,-10292.240714101878,8956.299299752629,-7743.694811307766,6926.872661933025,10915.58616347148,-187500.02235174447
1741815630.4304092,5166.02458548839,3470.421251108796,-9973.862466080484,9241.775779935811,-7424.668362697168,7236.444322639028,11176.431021264914,-187500.02235174447
1741815630.430453,5089.872192129158,3408.9539538567014,-10034.279231343178,9174.027642491776,-7488.817869283899,7174.5299904978265,11089.549790567135,-187500.02235174447
1741815630.430494,5088.106404317189,3109.194708966578,-10350.2434909634,8885.176048895843,-7799.954152101774,6874.144896762955,10828.481415329148,-187500.02235174447
1741815630.4305396,5190.566800900317,3115.14027299169,-10344.744961827393,8905.113804949977,-7799.104785812472,6876.9835683087795,10866.971119281188,-187500.02235174447
1741815630.4305792,5182.095489751755,3424.15314008631,-10015.816690423095,9202.01202654982,-7477.95492147862,7187.449298792994,11143.082218537596,-187500.02235174447
1741815630.4306293,5112.268640073376,3461.0111666931116,-9975.292977725623,9231.11399783063,-7432.826749423355,7225.961354489488,11145.742076127777,-187500.02235174447
1741815630.430669,5107.306552804298,3180.228552845544,-10280.148420351556,8950.644308405437,-7728.71914252271,6935.902766692969,10887.735889880169,-187500.02235174447
1741815630.430725,5203.463757451029,3118.940069549092,-10355.0938195102,8893.245028644209,-7808.850146394986,6866.277082714687,10854.096514474932,-187500.02235174447
1741815630.4307706,5231.828121164814,3418.229927805654,-10043.80107448114,9184.644721108047,-7499.278485688983,7170.551379984782,11125.401988673448,-187500.02235174447
1741815630.4308105,5165.35403315473,3542.5950339549822,-9921.402921843877,9291.26254215986,-7371.068879493342,7302.20315482654,11200.07916689863,-187500.02235174447
1741815630.4308505,5143.516378821895,3275.871667369803,-10200.129175201557,9033.166948934431,-7651.091534029429,7035.5244917302725,10953.695887767779,-187500.02235174447
1741815630.430892,5210.504556954451,3130.004183054469,-10354.020935776345,8901.224601414753,-7808.380759761425,6887.22066726931,10858.164531965796,-187500.02235174447
1741815630.4309316,5244.121580615232,3366.6868050917155,-10102.921438565427,9141.997592687321,-7552.989727615086,7131.435827187995,11091.539095823658,-187500.02235174447
1741815630.430987,5184.26360896392,3558.665938218348,-9897.44185178779,9317.07880700574,-7344.35854486925,7324.644306259669,11238.725333061855,-187500.02235174447
1741815630.4310317,5152.457076604018,3331.1698831522326,-10124.490871964797,9091.437946729417,-7583.365748329848,7090.375672623596,11020.482900200237,-187500.02235174447
1741815630.4310715,5195.975923058501,3122.248127728478,-10355.026764276834,8886.450098329795,-7815.8685941539525,6873.831972340581,10849.089723716943,-187500.02235174447
1741815630.431111,5263.701708758082,3322.095074903378,-10156.565625258163,9089.493344961804,-7616.066350467962,7075.578817794182,11044.443970256325,-187500.02235174447
1741815630.4311514,5190.767966600414,3555.246121316686,-9903.074491390526,9309.590972613212,-7359.803600287867,7318.251707345451,11237.406580138992,-187500.02235174447
1741815630.4311967,5124.606803012705,3355.9132642642576,-10098.272275718722,9114.169670840463,-7554.911977638242,7118.158890981543,11040.822987654567,-187500.02235174447
1741815630.4312391,5150.847751003236,3100.2316594400004,-10369.890674339615,8866.221769597742,-7824.339905302514,6857.2022744658325,10827.989676951132,-187500.02235174447
1741815630.4312792,5232.498673498473,3237.0019837620243,-10242.530434433274,9005.741358487769,-7692.28579906056,6989.591656874616,10970.862027509454,-187500.02235174447
1741815630.4313288,5176.574608871295,3515.616478397427,-9938.859634263472,9263.054640657263,-7398.181545517629,7275.559875435815,11205.130661145527,-187500.02235174447
1741815630.4313693,5102.880907402147,3380.5001831650957,-10065.616377069518,9134.9567931839,-7521.58552665538,7148.445504718484,11060.112543119496,-187500.02235174447
1741815630.4314156,5111.128701106156,3094.2860954148887,-10373.109325541178,8846.909862388356,-7829.637268738422,6852.776629063682,10806.75551971859,-187500.02235174447
1741815630.4314556,5206.749463885959,3159.8437619023043,-10314.145423668078,8918.18957545633,-7770.651015120866,6913.3722082820195,10891.848610859945,-187500.02235174447
1741815630.4314957,5169.0867744787665,3455.8255619794804,-9991.028605822159,9207.8234801082,-7448.7635432199895,7221.468653853972,11159.019012334229,-187500.02235174447
1741815630.4315355,5095.415424754075,3416.9782301161567,-10022.07517887058,9171.34543315714,-7479.139563934751,7185.035310391821,11099.161040682917,-187500.02235174447
1741815630.4315794,5094.454299742496,3126.6067178972626,-10325.701275551472,8878.783449981625,-7779.278788480615,6887.600646925051,10839.322011389973,-187500.02235174447
1741815630.4316244,5183.481297907984,3110.915793289637,-10353.52919739833,8868.881627187924,-7804.7150736707545,6863.25959721322,10850.207310939708,-187500.02235174447
1741815630.4316752,5179.7709083284035,3421.0015441181117,-10027.50665277322,9171.34543315714,-7481.732366291567,7179.357967300173,11129.939392797874,-187500.02235174447
1741815630.4317153,5115.487291274941,3479.6301698243824,-9960.317308940568,9223.402645993549,-7417.404045749194,7245.00504076541,11156.850893122066,-187500.02235174447
1741815630.4317548,5107.127738848655,3200.2110123885886,-10256.969661351402,8949.616128160493,-7715.531613294079,6966.479953107829,10904.499698221649,-187500.02235174447
1741815630.4317944,5199.239277748976,3124.9750405520253,-10350.131732241123,8877.442345314306,-7807.129062071927,6880.112812532522,10862.187845967752,-187500.02235174447
1741815630.43184,5236.857263667258,3419.638087706338,-10043.532853547675,9165.533979598758,-7498.764395566511,7170.461973006961,11135.482625422792,-187500.02235174447
1741815630.43188,5157.35210863973,3544.8078566560575,-9907.835412959506,9279.192600153996,-7359.98241424351,7300.772643181401,11219.525184574746,-187500.02235174447
1741815630.4319205,5140.700059020527,3298.7598536920377,-10167.026241663247,9034.306887901652,-7622.190728448717,7056.021041395788,10985.010681749663,-187500.02235174447
1741815630.43196,5212.046827321867,3135.5027121904745,-10344.744961827393,8886.114822162965,-7797.987198589707,6896.876620874003,10868.468686159693,-187500.02235174447
1741815630.4320097,5244.076877126322,3371.090098749411,-10101.066243775636,9130.978182670855,-7555.5378264829915,7138.677792391514,11099.406909871926,-187500.02235174447
1741815630.4320548,5164.169390698599,3567.8748569339346,-9878.398165511868,9312.519051136858,-7342.928033224111,7337.6530215326575,11254.460961158391,-187500.02235174447
1741815630.4320943,5124.87502394617,3344.715040292149,-10110.56573516914,9096.735310165324,-7571.295806323983,7112.570954867716,11036.822025397067,-187500.02235174447
1741815630.4321387,5182.8778008076915,3133.8933865896925,-10334.373752400132,8895.703720534291,-7795.327340999525,6896.4072342404415,10870.949729794233,-187500.02235174447
1741815630.4321833,5247.519045772439,3311.7238654761154,-10149.860101921571,9080.820868113145,-7606.052768951985,7075.914093961012,11054.703420961312,-187500.02235174447
1741815630.4322443,5164.795239543348,3548.853522402468,-9896.413671542845,9300.963199253465,-7349.678260049613,7317.8270242008,11246.123760476561,-187500.02235174447
1741815630.4322903,5120.024695399367,3385.641084389816,-10059.670813044408,9138.398961830017,-7516.802253341944,7151.977080342422,11074.775287482178,-187500.02235174447
1741815630.4323304,5151.9429864815465,3128.439560942598,-10333.56908959974,8885.33251110703,-7796.8472596224865,6890.238152770777,10856.555206365014,-187500.02235174447
1741815630.4323936,5229.0341531079,3244.623928621284,-10223.710265601905,9001.673340996902,-7687.524877491579,7003.71795937037,10981.233236936718,-187500.02235174447
1741815630.4324296,5164.392908143152,3519.0139435546334,-9924.241593389701,9265.558036036258,-7385.530458155926,7291.720186677002,11222.185042164927,-187500.02235174447
1741815630.432466,5095.661293943083,3407.7916631450253,-10030.211213852312,9162.762363286301,-7488.52729660598,7184.632978991625,11100.524497094691,-187500.02235174447
1741815630.4325063,5104.378474280653,3109.507633388953,-10338.95586001347,8875.430688313329,-7796.601390433478,6879.285797987676,10843.255918414106,-187500.02235174447
1741815630.4325416,5182.296655451853,3139.6154331702514,-10310.61384804414,8913.965095754278,-7768.035861019595,6907.1584233234435,10899.314093508017,-187500.02235174447
1741815630.432577,5145.326870122775,3447.0636781529997,-9995.007216335203,9200.492107926859,-7446.126037374263,7219.188775919531,11165.724535670823,-187500.02235174447
1741815630.4326122,5070.448526197497,3421.58268947395,-10006.78658566315,9170.160790701007,-7468.209560896106,7194.780670974335,11117.15419496944,-187500.02235174447
1741815630.4326477,5074.1142122881665,3128.5736714093296,-10307.752824753861,8882.203266883287,-7772.930893055308,6897.927152863402,10860.779686067068,-187500.02235174447
1741815630.4327009,5170.561989612816,3100.164604206634,-10348.81297931826,8864.27716783013,-7811.4653004962565,6868.780478093681,10863.81952331299,-187500.02235174447
1741815630.432736,5173.4900681364625,3419.123997583866,-10025.070312627591,9163.276453408773,-7485.219238426595,7195.227705863441,11145.54091042768,-187500.02235174447
1741815630.4327717,5107.798291182315,3493.868231042413,-9941.810064531574,9226.308372772739,-7398.136842028719,7274.419936468594,11184.030614379719,-187500.02235174447
1741815630.4328077,5097.896468388613,3206.3800938582535,-10241.345791977143,8953.460628206805,-7698.209011341216,6980.561552114672,10923.49868100866,-187500.02235174447
1741815630.4328432,5187.728129354493,3107.227755454511,-10351.539892141807,8866.311176575564,-7806.659675438366,6873.541399662662,10863.48424714616,-187500.02235174447
1741815630.4328833,5213.857318622747,3386.1775262567435,-10065.817542769617,9141.930537453954,-7517.003419042042,7156.715650166947,11121.512785138224,-187500.02235174447
1741815630.4329195,5141.7952944988365,3536.8729873744237,-9900.615799500441,9279.013786198353,-7358.238978175996,7315.904774177644,11229.471710857357,-187500.02235174447
1741815630.432955,5118.0800936317555,3284.454737240641,-10166.288634096221,9027.891937242977,-7622.481301126636,7059.865541442102,10987.98346376222,-187500.02235174447
1741815630.4329991,5191.997312545456,3123.2539562289667,-10349.729400840926,8871.630891755925,-7807.665503938855,6888.897048103458,10861.919625034288,-187500.02235174447
1741815630.433035,5248.770743461936,3363.4458021456962,-10109.917534579938,9113.454415017894,-7566.557236499458,7131.257013232353,11091.919075479398,-187500.02235174447
1741815630.433077,5170.360823912719,3574.669787248348,-9887.33886329399,9307.646370845601,-7337.8318354883,7348.337155382294,11258.640737371534,-187500.02235174447
1741815630.4331124,5121.589317511239,3348.134857193811,-10112.71150263685,9089.403937983983,-7566.490181266092,7124.707952106947,11039.057199842597,-187500.02235174447
1741815630.4331477,5177.535733882873,3125.399723696676,-10341.638069348106,8876.458868558273,-7804.938591115308,6895.446109228863,10860.891444789344,-187500.02235174447
1741815630.4331868,5257.934958688612,3300.771510693015,-10168.63556726403,9060.570187636637,-7629.387990163325,7073.902436960035,11039.95126962081,-187500.02235174447
1741815630.4332223,5183.16837348561,3559.537656252105,-9897.084223876504,9300.270295175349,-7354.260367662951,7338.7035535220575,11250.080019245152,-187500.02235174447
1741815630.4332626,5117.476596531463,3401.2426020196203,-10060.162551422423,9146.7585142563,-7514.924706807698,7181.123755112142,11083.313653864105,-187500.02235174447
1741815630.4333067,5134.3968670841305,3124.907985318659,-10354.266804965355,8878.80580172608,-7810.303009784581,6897.74833890776,10848.665040572292,-187500.02235174447
1741815630.433342,5220.7416559149815,3224.3732481447755,-10250.666469415006,8988.597570490549,-7709.653104502333,6992.519735398261,10967.241044907696,-187500.02235174447
1741815630.4333785,5167.365690155708,3514.7224086192145,-9941.58654708702,9261.06533540074,-7397.13101352823,7287.562762208315,11216.015960695262,-187500.02235174447
1741815630.433414,5094.320189275764,3423.057904608,-10031.328801075078,9167.34447089964,-7481.687662802657,7199.720406498958,11104.592514585556,-187500.02235174447
1741815630.4334545,5109.9217069055685,3140.107171548268,-10327.824691274725,8885.243104129207,-7786.029015306118,6910.757054180748,10854.029459241565,-187500.02235174447
1741815630.433493,5189.628027633194,3148.0196890854468,-10324.1366534396,8905.538488094628,-7781.871590837431,6914.087464104589,10888.406442213827,-187500.02235174447
1741815630.4335,5161.5765883417835,3453.545684045039,-9999.70108267082,9194.568895646202,-7453.412706066693,7222.5415375878265,11159.600157690067,-187500.02235174447
1741815630.4335074,5094.6554654425945,3459.2006753922315,-9985.328910986056,9196.938180558465,-7436.09010411383,7233.896223771122,11139.282421980193,-187500.02235174447
1741815630.4335165,5088.396976995108,3160.7601834249717,-10298.65566476055,8912.109900964488,-7748.925119510308,6933.935813180901,10874.168380995796,-187500.02235174447
1741815630.4335248,5178.273341449898,3109.552336877863,-10351.986927030914,8875.14011563541,-7815.153338331383,6880.828068355092,10858.969194766189,-187500.02235174447
1741815630.433533,5189.35980669973,3419.3922185173296,-10032.60285050903,9179.459116394415,-7495.143412964751,7195.965313430466,11141.539948170179,-187500.02235174447
1741815630.4335403,5118.862404687691,3510.0285422836,-9934.098712694493,9257.958442921454,-7389.7772896024335,7286.735747663468,11194.155954617972,-187500.02235174447
1741815630.4335475,5102.635038213139,3230.1176464697896,-10227.800634837227,8985.82595417809,-7679.657063443311,7004.232049492843,10937.893204437876,-187500.02235174447
1741815630.433555,5183.905981052635,3113.2850782018995,-10359.921796312547,8877.643511014403,-7817.723788943743,6884.002016067746,10856.219930198185,-187500.02235174447
1741815630.4335637,5220.987525103989,3391.4972414371064,-10076.300510919156,9150.647717791524,-7532.582584927391,7164.829333404224,11110.694540821856,-187500.02235174447
1741815630.433571,5154.602844071727,3566.6902144778032,-9891.183363340302,9309.255696446384,-7345.654946047658,7343.64328904668,11240.602879596101,-187500.02235174447
1741815630.4335806,5119.376494810163,3307.0076473960457,-10155.67155547995,9058.357364935562,-7608.399702119792,7084.854791743135,10996.70064409979,-187500.02235174447
1741815630.433588,5182.274303707398,3121.823444583827,-10357.016069533358,8882.538543050116,-7813.700474941787,6894.484984217284,10852.57659585197,-187500.02235174447
1741815630.4335954,5240.388839291196,3350.191217683699,-10130.458787734364,9112.314476050673,-7580.88470469531,7128.284231219796,11072.09307814754,-187500.02235174447
1741815630.4336035,5170.0702512348,3579.3636535839623,-9884.343729536979,9320.766844840866,-7340.558748311848,7357.590777586792,11253.008097768796,-187500.02235174447
1741815630.4336112,5121.902241933613,3374.9793022846347,-10099.613380386041,9121.52339476626,-7550.620442702823,7146.255033761863,11047.57321448007,-187500.02235174447
1741815630.4336183,5164.325852909787,3134.0498488008798,-10354.75854334337,8891.90392397689,-7807.263172538659,6901.682245931894,10854.096514474932,-187500.02235174447
1741815630.4336257,5238.243071823486,3278.7326906600824,-10195.97175073287,9048.477893886316,-7654.9136823312865,7050.164884348498,11011.832775096032,-187500.02235174447
1741815630.433634,5173.221847202998,3560.543484752594,-9903.879154190918,9308.383978412627,-7357.858998520255,7337.384800599194,11243.955641264396,-187500.02235174447
1741815630.4336443,5113.095654618222,3423.5719947304724,-10043.197577380846,9174.899360525533,-7498.049139743941,7199.429833821039,11095.607113314523,-187500.02235174447
1741815630.9096632,5128.026619914368,3139.838950614804,-10347.494226395396,8898.0506537021,-7803.709245170266,6910.913516391935,10852.733058063157,-187500.02235174447
1741815630.910448,5213.0526558223555,3212.437416605642,-10268.279644045788,8988.239942579263,-7723.019447686607,6985.009549261278,10951.863044722444,-187500.02235174447
1741815630.9104884,5157.128591195177,3502.7195218467145,-9961.859579307984,9262.965233679442,-7414.7218364145565,7282.801840639334,11200.995588421296,-187500.02235174447
1741815630.9105263,5102.635038213139,3454.5962160344384,-10006.473661240776,9208.382273719582,-7461.168761392684,7232.063380725787,11129.224136975305,-187500.02235174447
1741815630.910563,5103.216183568977,3154.3452327662985,-10322.683790050005,8914.00979924319,-7779.1223262694275,6927.006772399756,10863.48424714616,-187500.02235174447
1741815630.9106033,5195.573591658305,3162.973006126047,-10320.158042926556,8936.182729742854,-7777.378890201913,6932.482949791307,10902.041006331565,-187500.02235174447
1741815630.9106388,5180.30735019533,3474.8468965109464,-9988.704024398807,9239.406495023548,-7441.096894871819,7249.363630934195,11183.047137623686,-187500.02235174447
1741815630.9106832,5111.665142973083,3502.0266177686,-9957.791561817117,9260.283024344806,-7406.675208410646,7279.9184656046,11178.532085243713,-187500.02235174447
1741815630.9107192,5105.764282436881,3210.805739260404,-10267.877312645593,8970.53736097066,-7725.411084343325,6977.700528824393,10911.764015169623,-187500.02235174447
1741815630.910759,5193.383120701686,3140.531854692919,-10342.845063548692,8913.29454342062,-7804.78212890412,6904.9232488779135,10881.700918877235,-187500.02235174447
1741815630.9107947,5206.525946441406,3440.4699135386845,-10030.211213852312,9207.756424874833,-7486.023901226986,7212.5056043273935,11161.6341664355,-187500.02235174447
1741815630.9108346,5142.331736365764,3557.4589440177615,-9905.376721069422,9308.160460968073,-7352.785152528901,7331.439236574082,11237.27246967226,-187500.02235174447
1741815630.9108703,5114.235593585443,3273.032995823979,-10196.754061788806,9028.897765743466,-7654.578406164456,7042.386477278052,10970.616158320447,-187500.02235174447
1741815630.9109137,5188.8680683217135,3131.725267377528,-10347.605985117672,8904.71147354978,-7809.006608606173,6899.849402886558,10873.29666296204,-187500.02235174447
1741815630.9109492,5229.0341531079,3393.285380993531,-10076.99341499727,9162.114162697097,-7535.600070428857,7164.047022348288,11118.025913003197,-187500.02235174447
1741815630.9109936,5148.187893413055,3574.960359926267,-9887.182401082802,9323.337295453226,-7341.653983790158,7352.583986828803,11249.454170400402,-187500.02235174447
1741815630.9110303,5118.325962820764,3339.5294355785177,-10135.33146802562,9090.767394395756,-7587.232600120617,7111.162794967031,11017.085435043029,-187500.02235174447
1741815630.9110699,5184.464774664018,3143.6163954277513,-10348.634165362617,8899.9505519808,-7799.820041635042,6903.693902932871,10861.986680267653,-187500.02235174447
1741815630.9111056,5232.699839198571,3334.835569242903,-10147.826093176138,9099.037539844221,-7600.956571216175,7102.5573733517385,11055.910415161898,-187500.02235174447
1741815630.9111412,5152.032393459367,3567.8078017005687,-9894.089090119493,9315.60359187169,-7345.9231669811215,7342.123370423719,11244.357972664593,-187500.02235174447
1741815630.9111767,5105.943096392524,3379.159078497777,-10086.112926735035,9128.13951112503,-7537.052933818452,7148.065525062743,11052.870577915977,-187500.02235174447
1741815630.911216,5147.025602701378,3125.9585173080586,-10354.915005554558,8883.097336661498,-7808.82779465053,6888.561771936628,10842.853587013911,-187500.02235174447
1741815630.911252,5214.974905845512,3253.83284733687,-10227.420655181486,9022.84044299608,-7677.399537253325,7021.197023534421,10980.830905536523,-187500.02235174447
1741815630.9112968,5147.517341079395,3535.5542344515607,-9928.600183558487,9286.635731057613,-7375.092193495298,7307.679332218091,11218.653466540989,-187500.02235174447
1741815630.9113512,5088.91106711758,3411.2785352800533,-10043.599908781041,9167.120953455085,-7498.33971242186,7181.347272556695,11086.24173238775,-187500.02235174447
1741815630.9113941,5098.187041066532,3116.816653825838,-10351.875168308636,8881.823287227546,-7808.492518483701,6883.890257345469,10832.23650839764,-187500.02235174447
1741815630.9114301,5173.400661158641,3167.622168972751,-10304.914153208036,8942.798846101625,-7751.9426050117745,6930.672458490427,10904.879677877389,-187500.02235174447
1741815630.9114656,5137.101428163222,3488.950847262245,-9972.834285835539,9239.54060549028,-7419.572164961358,7254.281014714363,11182.980082390319,-187500.02235174447
1741815630.9115036,5069.152125019089,3448.3600793314076,-9999.052882081614,9197.429918936483,-7458.777124735967,7220.306363142296,11122.496261894257,-187500.02235174447
1741815630.911543,5085.24538102691,3160.022575857947,-10301.650798517561,8919.53068012365,-7757.664651592333,6928.213766600343,10871.642633872347,-187500.02235174447
1741815630.911578,5175.0770419927885,3146.1197908067456,-10328.495243608386,8918.368389411973,-7783.838544349497,6911.785234425693,10886.037157301565,-187500.02235174447
1741815630.9116218,5160.079021463278,3461.7934777490473,-10003.143251316937,9220.58632619218,-7456.609005523802,7233.471540626471,11168.45144849437,-187500.02235174447
1741815630.911657,5098.969352122468,3521.159711022343,-9933.159939427369,9271.280082616817,-7385.6645686226575,7292.323683777295,11195.206486607372,-187500.02235174447
1741815630.911697,5092.241477041421,3228.061285979901,-10233.723847117883,8988.8210879351,-7689.201258325727,6994.397281932507,10936.149768370364,-187500.02235174447
1741815630.911732,5176.529905382384,3136.62029941324,-10335.446636133986,8909.405339885396,-7788.487707196201,6895.401405739953,10886.663006146313,-187500.02235174447
1741815630.9117692,5198.725187626504,3438.435904793251,-10024.399760293933,9206.102395785141,-7482.067642458397,7203.319037356262,11164.763410659243,-187500.02235174447
1741815630.9118044,5133.323983350276,3572.4793162917276,-9884.81311617054,9323.6502198756,-7333.182672641597,7344.02326870242,11249.99061226733,-187500.02235174447
1741815630.9118488,5107.530070248851,3299.296295558965,-10172.167142887967,9055.675155600924,-7619.195594691706,7067.599245023638,10989.637492851913,-187500.02235174447
1741815630.9118843,5177.133402482677,3142.722325649539,-10333.27851692182,8915.909697521889,-7792.73453864271,6903.626847699506,10881.231532243673,-187500.02235174447
1741815630.9119284,5205.274248751909,3374.554619139984,-10085.62118835702,9152.815837003689,-7545.367782755827,7135.369734212129,11109.778119299188,-187500.02235174447
1741815630.911964,5139.1130851642,3577.083775649521,-9874.91129337684,9335.384885714637,-7324.644306259669,7342.972736713021,11261.278243217259,-187500.02235174447
1741815630.9120035,5134.262756617398,3385.037587289523,-10092.170249482424,9133.392171072028,-7540.115122808829,7144.869225605635,11055.128104105963,-187500.02235174447
1741815630.9120395,5186.409376431629,3181.815526701871,-10315.844156246681,8932.047657018622,-7772.0815267660055,6937.51209229375,10888.004110813632,-187500.02235174447
1741815630.9120762,5228.855339152257,3348.3807263828194,-10143.065171607157,9117.343618553117,-7597.067367680952,7111.721588578414,11067.153342622918,-187500.02235174447
1741815630.912112,5135.648564773627,3579.6095227729706,-9890.646921473375,9336.010734559386,-7344.202082658063,7351.175826928119,11259.154827494005,-187500.02235174447
1741815630.9121513,5085.96063684948,3414.1172068258775,-10058.374411866,9170.607825590114,-7510.476709661092,7185.281179580829,11086.800525999133,-187500.02235174447
1741815630.9121869,5124.763265223893,3161.0284043584356,-10326.572993585229,8916.602601600003,-7774.741384356187,6921.03885663019,10871.91085480581,-187500.02235174447
1741815630.9122314,5192.734920112482,3262.6617863967167,-10218.904640544015,9025.746169775268,-7668.905874360308,7016.458453709895,10992.431460908827,-187500.02235174447
1741815630.9122667,5141.6164805431945,3566.824324944535,-9899.229991344213,9304.181850455028,-7348.270100148929,7324.040809159375,11250.862330301086,-187500.02235174447
1741815630.9123073,5079.523334446351,3456.004375935123,-10006.674826940874,9197.653436381035,-7455.402011323215,7218.965258474977,11123.256221205738,-187500.02235174447
1741815630.9123468,5080.6856251580275,3158.2791397904325,-10325.120130195633,8905.359674138985,-7774.651977378367,6917.551984495161,10860.802037811523,-187500.02235174447
1741815630.9123824,5171.83603904677,3211.141015427234,-10280.84132442967,8969.553884214627,-7726.953354710741,6969.586845587117,10936.172120114818,-187500.02235174447
1741815630.912418,5141.437666587552,3522.210243011742,-9950.303727424589,9269.447239571482,-7398.270952495451,7283.494744717449,11214.65250428349,-187500.02235174447
1741815630.9124572,5075.790593122315,3502.339542190974,-9962.440724663822,9249.934166661998,-7413.246621280507,7268.206151510019,11174.35230903057,-187500.02235174447
1741815630.9124928,5072.795459365304,3202.9602769565913,-10280.237827329378,8949.929052582867,-7732.965973969219,6957.47220009234,10904.454994732738,-187500.02235174447
1741815630.912537,5170.986672757468,3168.717404451061,-10313.810147501248,8940.898947822923,-7765.6218726184225,6922.581126997606,10912.032236103087,-187500.02235174447
1741815630.9125729,5176.529905382384,3493.3988444088513,-9974.801239347606,9255.16447486454,-7426.076522597853,7254.906863559111,11206.181193134928,-187500.02235174447
1741815630.9126139,5113.341523807231,3569.37242381244,-9894.379662797412,9316.788234327822,-7347.376030370717,7329.002896428454,11241.429894140947,-187500.02235174447
1741815630.9126492,5114.704980219005,3287.1816500641885,-10187.478087839852,9042.822902539123,-7641.815560080477,7040.620689466083,10986.12826897243,-187500.02235174447
1741815630.9126844,5212.851490122258,3201.3509513558092,-10291.234885601389,8966.692860924348,-7745.527654353101,6944.552891797172,10935.099236380964,-187500.02235174447
1741815630.91272,5235.091475855288,3489.0179024956115,-9995.78952739114,9250.112980617641,-7451.736325232545,7241.942851775033,11199.498021542791,-187500.02235174447
1741815630.912761,5155.385155127663,3623.061313994088,-9846.323412218502,9371.840580921244,-7300.951457137044,7386.491583167503,11293.129479066072,-187500.02235174447
1741815630.9127963,5126.685515247049,3355.2650636750536,-10128.96122085586,9108.089996348619,-7579.342434327893,7111.632181600593,11037.783150408644,-187500.02235174447
1741815630.9128444,5185.895286309157,3182.0613958908793,-10321.745016782883,8942.977660057266,-7768.72876509771,6930.583051512605,10903.270352276606,-187500.02235174447
1741815630.9128797,5231.336382786797,3417.514671983084,-10081.888447032983,9171.546598857236,-7525.385323212782,7163.912911881556,11126.810148574132,-187500.02235174447
1741815630.9129193,5157.732088295471,3628.4480844078166,-9852.179569265792,9375.863894923199,-7290.267323287407,7386.826859334334,11298.628008202078,-187500.02235174447
1741815630.9129553,5109.720541205471,3391.318427481464,-10078.736851064785,9155.900377738522,-7532.806102371944,7148.154932040565,11074.417659570892,-187500.02235174447
1741815630.9129908,5147.182064912566,3153.182942054623,-10333.770255299838,8923.86691854798,-7784.419689705335,6906.17494656741,10878.795192098045,-187500.02235174447
1741815630.913026,5212.002123832956,3326.028981927512,-10156.72208746935,9102.837336401622,-7604.309332884471,7080.540905063261,11054.703420961312,-187500.02235174447
1741815630.9130657,5132.765189738892,3590.9642089562667,-9874.084278831993,9352.23810103394,-7324.376085326206,7349.320632138328,11273.392888712036,-187500.02235174447
1741815630.9130929,5075.097689044201,3425.516596498084,-10047.51146406072,9188.086889754164,-7495.7245583205895,7194.110118640676,11095.093023192052,-187500.02235174447
1741815630.913102,5105.652523714605,3151.4395059871085,-10334.843139033692,8925.72211333777,-7782.676253637822,6918.960144395846,10865.562959380504,-187500.02235174447
1741815630.9131093,5182.542524640861,3249.228387979077,-10226.727751103372,9034.753922790756,-7683.166287322794,7013.195099019421,10983.356652659972,-187500.02235174447
1741815630.9131176,5117.744817464926,3549.0770398470213,-9909.981180427216,9315.93886803852,-7364.273949178929,7323.6831812480905,11239.50764411779,-187500.02235174447
1741815630.9131248,5058.199770235989,3460.6982422707374,-9996.59419019153,9224.520233216313,-7444.606118751302,7234.298555171318,11129.738227097778,-187500.02235174447
1741815630.9131322,5072.080203542734,3166.4822300055303,-10309.94329571048,8934.551052397615,-7761.576206872011,6934.85223470357,10871.352061194428,-187500.02235174447
1741815630.9131403,5157.866198762203,3188.29753259391,-10299.817955472226,8966.961081857811,-7751.67438407831,6952.599519801083,10919.050683862053,-187500.02235174447
1741815630.9131484,5119.532957021351,3499.4561671562396,-9969.861503822984,9265.714498247446,-7417.269935282462,7269.3237387327845,11198.626303509034,-187500.02235174447
1741815630.9131558,5058.311528958265,3502.0042660241447,-9951.264852436168,9265.490980802891,-7406.027007821443,7269.994291066443,11176.11809684254,-187500.02235174447
1741815630.913165,5070.627340153139,3203.9214019681694,-10267.74320217886,8975.790020917657,-7716.448034816746,6964.647110062494,10907.941866867766,-187500.02235174447
1741815630.9131727,5167.9691872560015,3157.496828734497,-10324.695447050983,8941.301279223118,-7777.647111135378,6912.209917570343,10895.559000439525,-187500.02235174447
1741815630.9131808,5169.399698901141,3481.2618471696196,-9988.815783121085,9255.54445452028,-7445.500188529514,7246.10027624372,11192.613684250557,-187500.02235174447
1741815630.913188,5102.478576001951,3576.547333782594,-9884.299026048067,9336.681286893045,-7339.597623300269,7342.793922757379,11249.6553361005,-187500.02235174447
1741815630.9131956,5107.44066327103,3298.089301358378,-10179.654977280496,9067.74509760679,-7637.8369495674315,7057.518608274295,10992.476164397736,-187500.02235174447
1741815630.9132028,5197.719359126015,3183.2013348581,-10313.56427831224,8964.792962645646,-7766.828866819009,6939.344935339086,10913.708616937234,-187500.02235174447
1741815630.913211,5228.229490307509,3474.869248255402,-10016.397835778933,9249.800056195267,-7468.567188807391,7235.1032179717095,11185.237608580304,-187500.02235174447
1741815630.9132185,5138.01784968589,3624.1341977279426,-9850.838464598473,9387.084470639762,-7306.002951383943,7389.553772157881,11296.593999456645,-187500.02235174447
1741815630.9132276,5124.115064634689,3375.0910610069113,-10104.039025788192,9147.294956123229,-7561.282224808005,7139.035420302799,11059.218473341283,-187500.02235174447
1741815630.913235,5192.399643945652,3192.1196808957675,-10309.004522443358,8970.604416204025,-7765.376003429414,6946.631604031516,10913.216878559218,-187500.02235174447
1741815630.913244,5225.74844667297,3405.8247096329583,-10089.108060492046,9185.62819786408,-7544.5631199554355,7160.962481613456,11121.982171771786,-187500.02235174447
1741815630.9132512,5138.73310550846,3624.8047500616017,-9848.223310497202,9394.751118987933,-7302.560782737825,7395.8793158387325,11303.076005348685,-187500.02235174447
1741815630.9132588,5102.031541112846,3414.1842620592433,-10058.776743266195,9191.663168867013,-7520.646753388257,7185.303531325285,11095.115374936508,-187500.02235174447
1741815630.913266,5153.574663826784,3173.5230295089523,-10312.491394578385,8956.276948008173,-7775.411936689847,6935.165159125943,10897.235381273673,-187500.02235174447
1741815630.913275,5207.867051108725,3318.652906257261,-10162.310023583177,9109.27463880475,-7620.469644125658,7084.921846976501,11050.858920915,-187500.02235174447
1741815630.9132824,5128.719523992482,3598.9437817268113,-9865.94824385026,9366.342051785237,-7326.566556282825,7370.308920181861,11283.294711505738,-187500.02235174447
1741815630.9132917,5078.942189090513,3448.583596775961,-10014.3638270335,9217.658247668534,-7471.942302220143,7217.892374741123,11122.652724105445,-187500.02235174447
1741815630.9132988,5118.191852354033,3180.3403115678207,-10304.51182180784,8957.260424764208,-7763.699622595266,6943.882339463514,10891.44627945975,-187500.02235174447
1741815630.9133077,5194.523059668906,3261.4771439405854,-10222.838547568148,9051.428324154416,-7683.210990811705,7026.62849743706,10992.722033586746,-187500.02235174447
1741815630.9133148,5115.286125574842,3548.4288392578173,-9917.692532264296,9319.202222728994,-7377.7967545743895,7320.442178302072,11239.7535133068,-187500.02235174447
1741815630.9133222,5059.406764436575,3487.922667017301,-9978.355166716,9256.483227787403,-7438.772313448467,7263.311119474307,11157.566148944636,-187500.02235174447
1741815630.9133296,5087.838183383726,3197.037064675935,-10285.60224599865,8975.63355870647,-7743.806570030042,6966.703470552382,10903.605628443436,-187500.02235174447
1741815630.913338,5198.434614948585,3213.2420794060326,-10281.735394207883,9007.551849788648,-7735.089389692473,6981.254456192787,10948.532634798603,-187500.02235174447
1741815630.913348,5173.601826858739,3529.9439465932783,-9944.268756421658,9309.680379591035,-7403.367150231261,7301.644361215158,11232.377437636547,-187500.02235174447
1741815630.9133575,5116.448416286518,3542.706792677259,-9922.38639859991,9314.687170349023,-7386.201010489584,7315.167166610619,11215.50187057279,-187500.02235174447
1741815630.913365,5136.855558974214,3239.550082629929,-10238.082437286668,9018.727722016301,-7697.113775862906,7006.020189049267,10942.40825681785,-187500.02235174447
1741815630.9133732,5236.074952611322,3180.720291223561,-10312.357284111653,8971.520837726694,-7771.142753498883,6944.217615630343,10916.435529760782,-187500.02235174447
1741815630.9133806,5240.791170691392,3487.0733007279996,-10006.07132984058,9260.573597022725,-7456.072563656875,7253.319889702784,11186.355195803071,-187500.02235174447
1741815630.9133885,5160.101373207734,3577.597865771993,-9900.638151244897,9338.067095049273,-7350.460571105549,7349.5665013273365,11240.424065640458,-187500.02235174447
1741815630.9133956,5150.803047514325,3287.5616297199285,-10182.426593592954,9059.586710880603,-7643.871920570365,7055.39519255104,10981.993196248199,-187500.02235174447
1741815630.913404,5256.526798787928,3168.762107939972,-10313.810147501248,8948.744410126736,-7773.623797133422,6931.186548612899,10904.499698221649,-187500.02235174447
1741815630.9134111,5296.961104507578,3450.2599776101088,-10031.731132475274,9216.473605212404,-7488.48259311707,7214.830185750746,11161.410648990948,-187500.02235174447
1741815630.913421,5216.941859357579,3640.5403781581376,-9838.813226081518,9376.981482145964,-7293.7988989113455,7407.65868516668,11296.146964567539,-187500.02235174447
1741815630.9134283,5189.203344488543,3381.6624738767714,-10095.500659406265,9131.201700115407,-7550.106352580351,7150.747734397381,11056.223339584272,-187500.02235174447
1741815630.9134367,5259.812505222858,3176.3840527992315,-10308.669246276528,8948.833817104556,-7761.375041171914,6941.133074895511,10904.075015076998,-187500.02235174447
1741815630.913444,5308.516956390972,3383.1376890108218,-10106.117738022534,9161.465962107894,-7556.811875916944,7148.9372430965,11105.732453552777,-187500.02235174447
1741815630.913452,5226.150778073165,3624.692991339325,-9845.51874941811,9384.066985138295,-7292.413090755116,7393.5323826709255,11300.840830903153,-187500.02235174447
1741815630.9134595,5194.903039324647,3436.6030617479164,-10041.543548291153,9195.77588984679,-7497.065662987908,7204.458976323483,11105.933619252875,-187500.02235174447
1741815630.913468,5234.264461310442,3184.229515103044,-10325.56716508474,8946.643346147937,-7771.925064554819,6944.4858365638065,10890.082823047975,-187500.02235174447
1741815630.9134753,5311.981476781545,3316.03775215599,-10176.793953990216,9098.255228788285,-7627.443388395714,7080.786774252269,11044.667487700879,-187500.02235174447
1741815630.9134843,5246.379106805219,3600.4189968608616,-9866.931720606295,9366.453810507513,-7320.822157957811,7370.778306815423,11288.435612730458,-187500.02235174447
1741815630.913492,5207.755292386448,3486.2686379276083,-9983.652530151909,9257.466704543436,-7436.917118658676,7256.516189159893,11161.030669335207,-187500.02235174447
1741815631.3887575,5229.5482432303725,3207.6317915477507,-10272.615882470118,8984.708366955325,-7726.372209354903,6972.246703177298,10922.425797274804,-187500.02235174447
1741815631.3893745,5293.004845738989,3274.9552458471353,-10212.444986396431,9059.385545180505,-7665.1284295473615,7038.765494676291,11009.619952394958,-187500.02235174447
1741815631.3894992,5228.363600774241,3576.7484994826914,-9891.630398229408,9343.789141629833,-7344.336193124795,7343.64328904668,11272.744688122832,-187500.02235174447
1741815631.3895452,5164.348204654241,3525.183025024298,-9939.68664880832,9292.469536360448,-7394.158231515674,7293.843602400256,11199.587428520612,-187500.02235174447
1741815631.3896015,5168.371518656197,3213.8008730174156,-10265.038641099769,8990.564524002615,-7720.940735452264,6969.050403720189,10924.772730442612,-187500.02235174447
1741815631.3896422,5268.842609982802,3218.718256797583,-10264.882178888582,9007.73066374429,-7724.584069798479,6973.006662488779,10959.730858770712,-187500.02235174447
1741815631.3896828,5238.108961356755,3522.120836033921,-9942.3465063985,9295.822298028743,-7397.8462693508,7287.182782552574,11230.991629480319,-187500.02235174447
1741815631.3897283,5164.303501165331,3553.2344643157085,-9914.987971185205,9313.122548237152,-7362.910492767155,7321.6268207582025,11222.475614842846,-187500.02235174447
1741815631.3897731,5163.230617431476,3258.973748561591,-10223.285582457254,9031.64703031147,-7660.859246356398,7027.321401515174,10958.79208550359,-187500.02235174447
1741815631.3898132,5234.398571777174,3168.6056457287846,-10311.172641655523,8956.76868638619,-7767.052384263562,6930.448941045874,10909.618247701914,-187500.02235174447
1741815631.3898528,5241.774647447425,3468.2084284077205,-10002.226829794268,9244.681506715002,-7458.374793335771,7232.242194681429,11182.890675412498,-187500.02235174447
1741815631.3898923,5175.859353048725,3592.3276653680405,-9863.154275793348,9353.936833612543,-7314.742483465968,7363.782210800911,11268.922539820975,-187500.02235174447
1741815631.3899486,5173.177143714088,3319.971659180124,-10141.075866350635,9096.80236539869,-7592.7534810010775,7092.834364513679,11020.974638578253,-187500.02235174447
1741815631.3899887,5242.333441058808,3161.564846225363,-10319.42043535953,8949.124389782475,-7770.91923605433,6928.012600900245,10901.236343531173,-187500.02235174447
1741815631.3900287,5275.525781574939,3421.090951095933,-10058.910853732927,9191.797279333745,-7508.710921849123,7192.098461639698,11140.310602225138,-187500.02235174447
1741815631.3900685,5190.008007288934,3607.6162585754705,-9855.241758256168,9355.23323479095,-7303.566611238314,7384.569333144347,11280.009005070808,-187500.02235174447
1741815631.390113,5160.280187163376,3362.8870085343133,-10100.798022842173,9133.749798983312,-7548.094695579374,7135.973231312422,11052.892929660431,-187500.02235174447
1741815631.390154,5222.686257682593,3151.327747264832,-10334.127883211122,8932.897023307924,-7772.215637232738,6916.613211228038,10882.326767721983,-187500.02235174447
1741815631.3901937,5270.6978047725925,3342.457514102163,-10139.846520405594,9127.558365769191,-7584.081004152418,7107.497108876361,11072.674223503378,-187500.02235174447
1741815631.3902338,5184.420071175107,3584.3927960864066,-9871.96086310874,9352.908653367598,-7322.587945769781,7359.513027609948,11273.728164878865,-187500.02235174447
1741815631.390293,5144.008117199912,3401.9802095866457,-10059.335536877577,9176.933369270966,-7510.208488727629,7176.765164943357,11087.42637484388,-187500.02235174447
1741815631.3903344,5196.624123647705,3157.429773501131,-10327.176490685522,8937.680296621358,-7778.474125680224,6926.269164832732,10880.672738632291,-187500.02235174447
1741815631.3903751,5283.684168301126,3297.709321702638,-10191.59080881963,9085.760603637767,-7640.116827501873,7064.894683944546,11031.994048594719,-187500.02235174447
1741815631.3904157,5225.279060039408,3597.334456126029,-9872.519656720122,9369.605406475712,-7321.000971913454,7371.918245782644,11292.548333710234,-187500.02235174447
1741815631.3904777,5179.748556583948,3489.7778618070915,-9968.855675322495,9267.21206512595,-7420.220365550562,7262.729974118469,11178.241512565794,-187500.02235174447
1741815631.3905184,5203.419053962119,3204.100215923812,-10266.089173089167,8985.11069835552,-7715.643372016356,6968.357499642075,10930.852404934456,-187500.02235174447
1741815631.3905585,5289.562677092872,3256.135077015767,-10223.93378304646,9042.711143816847,-7674.47145872968,7021.800520634713,10998.93581854532,-187500.02235174447
1741815631.3905983,5231.626955464716,3556.766039939647,-9916.083206663514,9325.617173387667,-7361.904664266666,7328.801730728356,11260.69709786142,-187500.02235174447
1741815631.390653,5164.906998265624,3524.6912866462812,-9943.44174187681,9284.936998479008,-7391.4760221810375,7290.669654687603,11204.16953613395,-187500.02235174447
1741815631.3906927,5155.832190016769,3209.9563729711026,-10256.589681695663,8975.030061606176,-7712.782348726077,6970.123287454044,10927.454939777248,-187500.02235174447
1741815631.3907344,5236.074952611322,3177.3451778108097,-10298.342740338176,8957.819218375591,-7751.0038317446515,6942.3177173516415,10927.20907058824,-187500.02235174447
1741815631.390775,5226.709571684548,3499.0091322671337,-9967.335756699535,9264.015765668843,-7416.04058933742,7271.938892834055,11212.953771704886,-187500.02235174447
1741815631.3908193,5152.92646323758,3554.6202724719374,-9901.420462300834,9307.780481312333,-7350.639385061191,7327.170053383119,11232.578603336646,-187500.02235174447
1741815631.390864,5141.705887521015,3255.2857107264654,-10207.527602616263,9019.577088305603,-7654.6231096533675,7021.107616556599,10962.725992527723,-187500.02235174447
1741815631.390904,5234.51033049945,3163.7776689264383,-10309.56331605474,8940.496616422728,-7755.094200979973,6925.620964243528,10910.467613991215,-187500.02235174447
1741815631.3909445,5251.9893946635,3454.5291608010725,-10014.69910320033,9223.737922160379,-7454.887921200743,7225.022581222365,11176.341614287092,-187500.02235174447
1741815631.3909998,5167.946835511546,3589.466642077761,-9867.937549106784,9340.123455539162,-7309.288657818874,7365.637405590703,11264.541597907735,-187500.02235174447
1741815631.39104,5151.518303336895,3329.024115684523,-10138.572470971641,9087.9957780833,-7580.437669806203,7100.232791928386,11018.337132732528,-187500.02235174447
1741815631.3910801,5235.583214233305,3179.870924934259,-10298.387443827087,8954.064125307099,-7746.488779364679,6947.65978427646,10912.702788436745,-187500.02235174447
1741815631.39112,5269.066127427355,3422.8790906523577,-10050.350135606544,9195.351206702138,-7492.058872229919,7191.204391861486,11143.864529593531,-187500.02235174447
1741815631.3911672,5182.207248474032,3621.8990232824117,-9844.870548828907,9369.873627409175,-7278.8902853596555,7392.928885570632,11288.6144266861,-187500.02235174447
1741815631.3912072,5154.1781609270765,3406.8528898779023,-10069.416173626922,9157.800276017222,-7506.609857870324,7179.6932434670025,11072.964796181297,-187500.02235174447
1741815631.3912473,5205.69893189656,3200.8368612333375,-10298.32038859372,8956.366354985996,-7731.379000112892,6961.853142005581,10905.72904416669,-187500.02235174447
1741815631.391287,5261.377127334729,3385.1940495007098,-10104.642522888485,9150.33479336915,-7544.138436810785,7148.065525062743,11098.401081371438,-187500.02235174447
1741815631.3913407,5193.852507335247,3651.5597881746044,-9808.258391411113,9403.71416851451,-7250.995308279433,7422.008505106986,11328.378180072092,-187500.02235174447
1741815631.3913808,5159.475524362984,3497.086882243977,-9964.564140387076,9256.147951620575,-7408.41864447816,7269.681366644069,11171.200713062372,-187500.02235174447
1741815631.3914263,5201.675617894604,3246.5461786444403,-10229.275849971276,9015.821995237113,-7677.801868653521,7013.373912975063,10964.022393706131,-187500.02235174447
1741815631.3914666,5272.173019906642,3353.409868885263,-10126.167252798945,9134.643868761525,-7575.542637770491,7120.4611206604395,11087.582837055068,-187500.02235174447
1741815631.3915124,5213.7008564115595,3650.8445323520345,-9817.422606637789,9410.374988362193,-7262.662918885103,7425.160101075185,11341.029267433796,-187500.02235174447
1741815631.391552,5161.35307089723,3556.542522495094,-9911.992837428194,9313.144899981608,-7349.79001877189,7330.8804429627,11229.471710857357,-187500.02235174447
1741815631.391592,5181.961379285023,3271.133097545278,-10200.263285668289,9036.31854490263,-7653.460818941691,7035.077456841166,10984.071908482541,-187500.02235174447
1741815631.391632,5265.109868658766,3309.3769323083084,-10166.445096307409,9088.532219950226,-7619.642629580811,7074.30476836023,11047.819083669077,-187500.02235174447
1741815631.3916857,5211.778606388403,3604.4199591183615,-9858.505112946643,9367.034955863352,-7306.338227550773,7376.053318506875,11304.506516993824,-187500.02235174447
1741815631.391726,5156.569797583795,3605.112863196476,-9851.509016932132,9362.8104761613,-7296.771680923901,7378.467306908048,11275.248083501827,-187500.02235174447
1741815631.3917663,5155.966300483501,3293.820118167415,-10170.91544519847,9061.8889405595,-7610.970152732152,7060.603149009126,10995.739519088213,-187500.02235174447
1741815631.3918064,5231.470493253529,3242.0534780089233,-10228.35942844861,9024.807396508146,-7664.770801636077,7003.5391454147275,10977.634606079413,-187500.02235174447
1741815631.3918512,5210.258687765442,3542.6844409328037,-9924.308648623068,9315.871812805153,-7360.764725299446,7312.887288676177,11246.861368043586,-187500.02235174447
1741815631.3918924,5113.922669163068,3590.3383601115183,-9871.022089841616,9354.830903390754,-7309.44512003006,7369.146629470186,11258.41721992698,-187500.02235174447
1741815631.3919325,5099.237573055932,3297.7316734470933,-10176.548084801208,9068.236835984808,-7617.6980278132,7069.834419469169,10987.737594573211,-187500.02235174447
1741815631.3919768,5181.73786184047,3188.074015149357,-10298.163926382533,8969.375070258984,-7742.465465362724,6956.086391936111,10915.295590793561,-187500.02235174447
1741815631.3920324,5195.506536424939,3446.549588030528,-10030.658248741418,9221.167471548019,-7466.421421339682,7217.691209041025,11154.660422165445,-187500.02235174447
1741815631.3920724,5119.465901787985,3585.018644931155,-9881.460354502244,9342.448036962514,-7311.903811920144,7358.328385153817,11250.012964011785,-187500.02235174447
1741815631.3921125,5093.940209620025,3319.0775894019116,-10150.374192044043,9084.933589092921,-7589.735995499611,7089.056919700733,11001.059234268574,-187500.02235174447
1741815631.3921523,5164.415259887607,3151.685375176117,-10340.833406547716,8928.426674416862,-7778.272959980126,6917.931964150902,10871.888503061355,-187500.02235174447
1741815631.392197,5213.454987222551,3376.6333313743276,-10111.750377625272,9154.536921326748,-7548.362916512838,7149.160760541054,11089.348624867038,-187500.02235174447
1741815631.3922374,5148.299652135331,3590.9865607007223,-9877.638206200387,9348.594766687724,-7310.450948530549,7363.201065445074,11258.998365282818,-187500.02235174447
1741815631.3922772,5112.313343562287,3378.130898252833,-10099.009883285747,9143.606918288102,-7535.041276817475,7149.4066297300615,11049.942499392331,-187500.02235174447
1741815631.3923173,5158.0673644623,3147.7961716408936,-10346.488397894907,8923.755159825701,-7782.497439682179,6917.84255717308,10864.221854713185,-187500.02235174447
1741815631.3923736,5238.354830545763,3325.6713540162273,-10174.715241755872,9102.390301512516,-7603.2588008950715,7093.616675569615,11042.8569964,-187500.02235174447
1741815631.392414,5170.427879146085,3584.9739414422443,-9899.05117738857,9347.119551553673,-7326.052466160353,7359.200103187573,11261.144132750527,-187500.02235174447
1741815631.3924544,5135.134474651155,3434.7478669581255,-10042.616432025008,9205.700064384946,-7478.133735434263,7206.38122634664,11107.207668686828,-187500.02235174447
1741815631.3925068,5172.216018702509,3177.166363855167,-10310.055054432756,8963.25069227823,-7750.333279410992,6943.882339463514,10895.760166139624,-187500.02235174447
1741815631.3925564,5245.797961449381,3268.9649783331133,-10225.811329580705,9068.54976040718,-7664.413173724792,7034.943346374434,11004.859030825977,-187500.02235174447
1741815631.3925965,5204.626048162705,3561.929292908823,-9928.287259136112,9337.821225860265,-7360.474152621527,7334.8814052202,11252.18108322395,-187500.02235174447
1741815631.3926363,5155.966300483501,3486.581562349983,-9995.856582624505,9261.199445867473,-7434.547833746414,7260.047764783832,11157.812018133644,-187500.02235174447
1741815631.3926768,5169.869085534702,3200.076901921857,-10288.195048355466,8986.25063732274,-7732.384828613381,6963.753040284281,10910.311151780028,-187500.02235174447
1741815631.3927312,5258.337290088808,3223.3897713887422,-10267.206760311934,9022.527518573705,-7709.116662635406,6985.836563806125,10960.848445993477,-187500.02235174447
1741815631.3927712,5217.299487268864,3522.053780800555,-9958.752686828695,9298.862135274665,-7399.567353673859,7293.843602400256,11219.368722363559,-187500.02235174447
1741815631.3928113,5146.466809089996,3523.6184029124265,-9954.148227470903,9291.039024715308,-7389.442013435604,7297.151660579641,11192.300759828182,-187500.02235174447
1741815631.3928518,5143.583434055261,3232.263413937499,-10256.366164251109,9012.111605657532,-7692.866944416398,7002.823889592158,10938.541405027081,-187500.02235174447
1741815631.3928964,5223.7367896719925,3171.4443172746087,-10311.217345144432,8962.714250411302,-7754.893035279875,6930.963031168346,10915.675570449303,-187500.02235174447
1741815631.3929365,5215.354885501252,3459.804172492525,-10025.897327172439,9238.244204311874,-7460.051174169919,7222.854462010201,11170.97719561782,-187500.02235174447
1741815631.3929763,5141.974108454479,3545.7242781787254,-9931.371799870945,9313.27901044834,-7369.750126570479,7316.530623022392,11217.178251406938,-187500.02235174447
1741815631.393016,5107.641828971127,3243.2157687205995,-10240.094094287646,9022.505166829249,-7684.529743734568,7011.71988388537,10939.8825096944,-187500.02235174447
1741815631.393073,5175.345262926253,3104.992581008981,-10388.040290837323,8898.318874635563,-7833.079437384539,6871.261521728221,10843.814712025489,-187500.02235174447
1741815631.3931177,5185.738824097971,3344.5585780809615,-10138.43836050491,9138.577775785658,-7575.341472070393,7114.046170001766,11067.086287389551,-187500.02235174447
1741815631.393158,5105.473709758962,3507.6145538824267,-9966.911073554882,9283.26061764486,-7397.89097283971,7281.483087716471,11181.59427423409,-187500.02235174447
1741815631.3931985,5079.277465257343,3257.029146793979,-10236.40605645252,9035.200957679863,-7668.928226104764,7027.768436404281,10935.725085225713,-187500.02235174447
1741815631.3932428,5153.373498126686,3075.1530021611457,-10428.742817490438,8866.177066108832,-7857.5545975631,6841.824274280581,10799.111223114876,-187500.02235174447
1741815631.393283,5213.790263389381,3297.2846385579874,-10199.436271123443,9092.823754885645,-7631.734923331132,7064.738221733359,11019.365312977472,-187500.02235174447
1741815631.3933246,5146.131532923167,3536.805932141058,-9942.97235524325,9313.390769170615,-7376.388594673705,7309.914506663622,11213.378454849537,-187500.02235174447
1741815631.3933644,5112.179233095555,3342.681031546716,-10147.736686198317,9123.75856921179,-7572.748669713577,7113.174451968009,11018.404187965893,-187500.02235174447
1741815631.3934183,5172.171315213599,3122.292831217388,-10384.687529169027,8911.282886419642,-7816.583849976522,6885.544286435162,10838.874976500867,-187500.02235174447
1741815631.3934584,5260.617168023249,3295.0047606235457,-10207.795823549726,9092.644940930002,-7645.1683217487725,7058.211512352409,11020.214679266774,-187500.02235174447
1741815631.393498,5197.808766103836,3574.6921389928034,-9915.278543863124,9352.573377200768,-7348.9183007381325,7344.291489635884,11255.511493147791,-187500.02235174447
1741815631.393538,5146.243291645443,3440.089933882944,-10048.092609416559,9222.128596559596,-7485.91214250471,7209.912801970578,11111.879183277988,-187500.02235174447
1741815631.3935835,5167.365690155708,3173.2101050865776,-10328.383484886108,8963.451857978327,-7770.382794187402,6935.545138781684,10885.67952939028,-187500.02235174447
1741815631.3936238,5260.036022667411,3258.6384723947613,-10244.78796062326,9058.089144002097,-7687.94956063623,7017.956020588401,10989.391623662905,-187500.02235174447
1741815631.393668,5203.821385362314,3550.1946270697867,-9937.92086099635,9332.590917657724,-7378.891990052699,7317.938782923077,11239.775865051255,-187500.02235174447
1741815631.3937082,5117.7895209538365,3487.4309286392845,-9997.085928569548,9268.910797704553,-7435.4419035246265,7257.857293827212,11157.54379720018,-187500.02235174447
1741815631.3937624,5135.045067673334,3196.3441605978205,-10302.2319438734,8981.936750642866,-7737.123398437906,6961.629624561027,10900.9234191088,-187500.02235174447
1741815631.393803,5219.713475670037,3210.135186926745,-10301.829612473204,9003.506184042239,-7729.590860556467,6971.687909565915,10940.17308237232,-187500.02235174447
1741815631.3938427,5182.78839382987,3509.1344725053877,-9987.854658109505,9289.005015969875,-7426.367095275771,7277.750346392435,11204.951847189886,-187500.02235174447
1741815631.3938825,5117.543651764829,3522.3890569673845,-9948.448532634799,9295.956408495476,-7396.8180891058555,7292.480145988482,11189.59619874909,-187500.02235174447
1741815631.3939269,5128.294840847831,3227.234271435055,-10261.596472453652,9010.569335290114,-7706.456805045224,6997.951209300901,10922.023465874609,-187500.02235174447
1741815631.393967,5213.7008564115595,3151.9312443651256,-10345.706086838973,8947.470360692783,-7782.005701304162,6917.328467050608,10882.10325027743,-187500.02235174447
1741815631.3940067,5206.972981330512,3433.8537971799133,-10057.525045576698,9221.435692481482,-7485.018072726497,7207.14118565812,11137.047247534663,-187500.02235174447
1741815631.3940537,5125.009134412901,3542.013888599144,-9939.485483108221,9318.978705284442,-7375.718042340046,7325.359562082239,11203.722501244843,-187500.02235174447
1741815631.3940637,5130.127683893166,3276.229295281088,-10212.869669541082,9055.116361989541,-7650.622147395868,7054.814047195202,10951.661879022346,-187500.02235174447
1741815631.394071,5215.086664567789,3135.8603401017594,-10367.990776060913,8926.347962182517,-7802.614009691955,6904.587972711083,10852.57659585197,-187500.02235174447
1741815631.3940785,5234.689144455093,3387.2057065016875,-10103.681397876906,9182.633064107069,-7536.49414020707,7161.856551391667,11098.065805204607,-187500.02235174447
