Timestamp,EEG_1,EEG_2,EEG_3,EEG_4,EEG_5,EEG_6,EEG_7,EEG_8
1741818507.712352,0.0,0.0,0.0,0.0,0.0,0.0,0.0,0.0
1741818507.728856,-13323.78546283072,-4105.09903491724,-16285.36925141445,-29829.207638407664,-21647.306877053605,-17861.72602912498,-34261.91619180634,-187500.02235174447
1741818508.2085671,-13447.480016646388,-4228.771236988454,-16406.314540662115,-29963.65338130634,-21763.580651710112,-17982.693670117103,-34388.53882414565,-187500.02235174447
1741818508.209344,-13795.384919093243,-4572.384604499889,-16750.486701784936,-30313.458182031893,-22110.636187867665,-18318.662741024822,-34737.002520203896,-187500.02235174447
1741818508.2093897,-13775.067183383368,-4548.445886188256,-16731.21949806446,-30283.350382250595,-22098.298024928336,-18302.122450127896,-34712.81793270325,-187500.02235174447
1741818508.2094316,-13415.22644939738,-4183.374843999725,-16367.847188454532,-29908.399869012817,-21739.418415953925,-17936.06793118333,-34341.9577887008,-187500.02235174447
1741818508.2094722,-13482.818124630228,-4245.512693585479,-16436.19882299886,-29981.110093725933,-21805.043137674707,-17989.645062642703,-34410.577644178586,-187500.02235174447
1741818508.209524,-13823.861041529304,-4587.941418640783,-16776.817056753287,-30335.47465032037,-22134.172574779102,-18332.6772847983,-34759.287209425835,-187500.02235174447
1741818508.2095692,-13854.706448877627,-4622.094884168492,-16805.42728965608,-30363.950772756434,-22161.173482081114,-18371.278747472614,-34792.65836389761,-187500.02235174447
1741818508.2096095,-13492.33996776819,-4265.964539762084,-16443.507843435746,-29990.855454308446,-21805.177248141437,-18020.08813859083,-34426.53678971968,-187500.02235174447
1741818508.2096505,-13448.530548635788,-4222.602155518789,-16395.13866843446,-29948.54360205455,-21761.233718542306,-17973.440047912605,-34379.79929206363,-187500.02235174447
1741818508.209691,-13813.288666401944,-4582.308779038046,-16759.829730967253,-30321.0577751467,-22122.23674323997,-18331.045607453063,-34747.84311626472,-187500.02235174447
1741818508.2097328,-13897.018301131524,-4664.831419567039,-16844.319325008313,-30401.63581390808,-22204.602921557776,-18412.83064041503,-34830.29870156034,-187500.02235174447
1741818508.2097733,-13534.294192110801,-4298.911011089207,-16479.60591073107,-30021.387937234398,-21838.61545784658,-18049.726551738568,-34459.036226157696,-187500.02235174447
1741818508.209813,-13398.663806755998,-4158.206779743049,-16338.09701658452,-29881.77894136655,-21702.806258536133,-17902.339148800274,-34317.28146282214,-187500.02235174447
1741818508.2098627,-13744.780569646427,-4498.713254775197,-16683.096192252182,-30235.718814816337,-22047.112530125683,-18237.28003946305,-34667.1309670366,-187500.02235174447
1741818508.2099025,-13917.85012696387,-4673.883876071439,-16855.696362936065,-30411.31411925723,-22215.555276340878,-18416.40691952788,-34844.04502440036,-187500.02235174447
1741818508.2099428,-13599.360120220199,-4357.114953650827,-16540.22384169386,-30084.576318809548,-21898.339319031158,-18106.63409312178,-34524.325671711646,-187500.02235174447
1741818508.209983,-13370.277091297758,-4120.521738591402,-16308.79387960361,-29849.27950492853,-21674.508950055715,-17869.77265712889,-34289.45354097528,-187500.02235174447
1741818508.2100232,-13660.715658750018,-4411.764968844052,-16595.7679266653,-30152.458566720317,-21958.554918593756,-18146.442549996682,-34581.47908228387,-187500.02235174447
1741818508.2100637,-13912.865687950336,-4663.155038732892,-16843.313496507824,-30404.899168598557,-22194.410526086158,-18396.02212858464,-34832.26565507241,-187500.02235174447
1741818508.2101076,-13706.80495581686,-4447.907739628285,-16630.167261382016,-30176.799616432145,-21984.080610761717,-18184.060535914963,-34612.61506231011,-187500.02235174447
1741818508.2101474,-13389.521943273778,-4133.016363741918,-16314.605333161991,-29864.2998772025,-21679.448685580337,-17867.29161349435,-34293.81213114406,-187500.02235174447
1741818508.2102025,-13626.271620544388,-4369.9672067126285,-16543.12956847305,-30106.68219407585,-21893.33252827317,-18085.24347367805,-34529.73479386983,-187500.02235174447
1741818508.2102807,-13940.045409207989,-4656.069535740559,-16844.699304664053,-30413.839866380677,-22199.841999988796,-18366.584881137,-34832.60093123924,-187500.02235174447
1741818508.210322,-13767.087610612823,-4502.580106565965,-16679.40815441706,-30240.055053240667,-22047.85013769271,-18216.26939967506,-34664.47110944642,-187500.02235174447
1741818508.2103624,-13402.374196335579,-4149.690765105577,-16299.294388210106,-29853.168708463756,-21669.05512440862,-17857.501549422926,-34281.47396820474,-187500.02235174447
1741818508.2104025,-13583.78095433485,-4322.514453234012,-16449.855738861053,-30010.41323070684,-21808.84293423211,-18008.264065773972,-34438.94200789237,-187500.02235174447
1741818508.2104428,-13928.064874179945,-4664.205570722291,-16806.500173389933,-30382.815645076713,-22171.857615930752,-18353.77733156411,-34798.46981745599,-187500.02235174447
1741818508.2104828,-13891.497420251062,-4636.53411108662,-16774.51482707439,-30340.81671724519,-22148.298877274858,-18297.272121581093,-34758.68371232554,-187500.02235174447
1741818508.210522,-13562.010355235381,-4298.1734035221825,-16423.234811214785,-29981.624183848406,-21794.873093947543,-17936.73848351699,-34402.21809175231,-187500.02235174447
1741818508.210573,-13617.554440206819,-4370.458945090645,-16456.941241853387,-30021.678509912315,-21823.662140805976,-18004.17369653865,-34444.5299440062,-187500.02235174447
1741818508.2106135,-13993.510781945084,-4754.908949721927,-16815.306760705324,-30379.77580783079,-22180.86536894624,-18378.990099309696,-34807.72343966048,-187500.02235174447
1741818508.210653,-14049.993640183646,-4811.481214938309,-16860.747857182963,-30419.91954087252,-22227.26759043546,-18423.626532986946,-34848.64948375815,-187500.02235174447
1741818508.210698,-13690.152906197656,-4455.462629254178,-16500.907123196976,-30049.819356181546,-21867.628022149565,-18056.409723330704,-34481.27621189073,-187500.02235174447
1741818508.2107382,-13631.568983980296,-4399.538564627,-16447.084122548596,-30005.406439948852,-21813.715614523368,-17990.695594632103,-34427.363804264525,-187500.02235174447
1741818508.210778,-13994.941293590224,-4775.427851131899,-16813.160993237616,-30367.817624547202,-22187.660299260653,-18349.217575695227,-34791.13844527465,-187500.02235174447
1741818508.2108176,-14128.694132410781,-4922.681143603461,-16939.940087788116,-30480.202195668484,-22317.233361868068,-18481.674013337375,-34917.492856680496,-187500.02235174447
1741818508.2108574,-13771.937939159625,-4563.756831140141,-16568.43174319646,-30094.81341777008,-21943.847470742163,-18132.763282390035,-34543.68228240994,-187500.02235174447
1741818508.2109084,-13621.331885019767,-4403.785396073508,-16416.86456404502,-29961.060578949524,-21779.517445506746,-17984.682975373624,-34393.90324281493,-187500.02235174447
1741818508.2109482,-13937.989048718102,-4723.303583062123,-16732.918230643063,-30284.825597384646,-22100.577902862777,-18291.013633133607,-34715.96952867145,-187500.02235174447
1741818508.210991,-14113.159670014344,-4902.341056149132,-16902.836191992308,-30456.08466340121,-22284.46570449659,-18467.23478641925,-34891.09544647878,-187500.02235174447
1741818508.2110305,-13820.620038583284,-4604.213488604247,-16605.75915643682,-30149.39637772994,-21996.105849278672,-18184.17229463724,-34594.04076266775,-187500.02235174447
1741818508.21107,-13589.54770440432,-4376.62802656031,-16373.323365846083,-29917.1617528393,-21768.967422123842,-17955.804521537368,-34359.95094298732,-187500.02235174447
1741818508.21111,-13865.16706528271,-4648.7828670481285,-16654.97769772741,-30205.722773757312,-22045.34674231371,-18223.01962650056,-34643.28165570279,-187500.02235174447
1741818508.2111611,-14110.902143824356,-4888.930009475948,-16906.72539552753,-30461.940820448497,-22291.998242378027,-18472.12981845496,-34895.23051920301,-187500.02235174447
1741818508.2112007,-13872.923120608702,-4641.943233244805,-16673.663756092043,-30222.79950652117,-22053.102797639705,-18244.18672849974,-34662.66061814554,-187500.02235174447
1741818508.2112553,-13545.179491660536,-4312.702037418132,-16350.435179523849,-29899.72739216416,-21728.846040826564,-17923.238029865985,-34338.76148924369,-187500.02235174447
1741818508.2112956,-13759.86799715376,-4529.424551656789,-16571.181007764462,-30131.135002509953,-21948.116653933128,-18138.127701059308,-34562.68126519695,-187500.02235174447
1741818508.211336,-14050.641840772849,-4821.584203432108,-16867.05104911936,-30432.43651776749,-22246.490090667023,-18430.332056323536,-34861.54644030886,-187500.02235174447
1741818508.2114413,-13898.247647076565,-4663.78088757764,-16718.791928147308,-30274.633201913024,-22099.259149939913,-18284.621034219388,-34711.27566233584,-187500.02235174447
1741818508.211481,-13542.698448025996,-4311.651505428732,-16365.14262737544,-29914.904226649312,-21746.05688405715,-17943.823986509324,-34354.6088760625,-187500.02235174447
1741818508.2115204,-13657.944042437559,-4426.919451584751,-16484.813867189154,-30046.198373579788,-21860.36370520159,-18055.33683959685,-34478.50459557827,-187500.02235174447
1741818508.2115605,-13981.239674239121,-4738.480417547276,-16808.310664690813,-30377.942964785456,-22177.400848555666,-18364.103837502462,-34806.829369882274,-187500.02235174447
1741818508.2116,-13944.76162728806,-4702.427053740866,-16778.068754442782,-30337.15103115452,-22149.260002286435,-18337.885241256387,-34772.18416597655,-187500.02235174447
1741818508.2116506,-13565.452523881499,-4322.313287533914,-16399.273741158693,-29944.944971197245,-21776.209387327362,-17968.880292043723,-34386.124835744486,-187500.02235174447
1741818508.211692,-13585.904370058104,-4341.401677298746,-16414.763500066223,-29968.25784066413,-21796.147143381495,-17984.951196307087,-34404.38621096447,-187500.02235174447
1741818508.211732,-13934.65863879426,-4689.910076845894,-16764.188321136036,-30327.62918801656,-22142.643885927664,-18328.452805096247,-34758.88487802564,-187500.02235174447
1741818508.211772,-14000.372767492863,-4755.870074733505,-16838.66433366112,-30398.640680151067,-22210.503782093976,-18399.59840769749,-34831.08101261628,-187500.02235174447
1741818508.211812,-13610.625399425675,-4366.3238723664135,-16452.53794819569,-29996.733963100192,-21822.36573962757,-18015.70719667759,-34439.21022882584,-187500.02235174447
1741818508.211856,-13515.67518897953,-4266.813906051387,-16353.89969991442,-29903.52718872156,-21728.64487512647,-17917.292465840874,-34343.120079412474,-187500.02235174447
1741818508.2118957,-13868.430419973187,-4616.216375376746,-16705.202067518483,-30268.41941695445,-22081.109533442206,-18265.04090607654,-34702.06674362025,-187500.02235174447
1741818508.2119355,-14005.468965228674,-4751.377374097989,-16844.878118619697,-30407.469619210915,-22216.605808330278,-18397.96673035225,-34843.12860287769,-187500.02235174447
1741818508.2119858,-13696.120821967224,-4441.537492458522,-16535.50762361379,-30082.408199597383,-21906.63181622408,-18096.173476716696,-34527.43256419093,-187500.02235174447
1741818508.212026,-13544.844215493706,-4285.835240582853,-16381.012365938708,-29928.516439022595,-21755.645782428477,-17945.32155338783,-34370.8138907926,-187500.02235174447
1741818508.2120657,-13853.097123276846,-4592.344712298478,-16689.198218488484,-30249.55454463417,-22060.501225054413,-18241.57157439847,-34684.65473468957,-187500.02235174447
1741818508.212106,-14048.898404705335,-4793.800985074161,-16886.988805173492,-30450.094395887187,-22254.06733203737,-18440.79267272862,-34885.46280687604,-187500.02235174447
1741818508.2121556,-13771.937939159625,-4513.443054371244,-16608.888400660562,-30156.39247374445,-21979.945538037486,-18166.469713028637,-34602.71323951641,-187500.02235174447
1741818508.212196,-13505.348683041178,-4245.982080219041,-16336.241821794729,-29884.349391978907,-21711.434031895882,-17899.96986388801,-34329.910198439386,-187500.02235174447
1741818508.212236,-13770.261558325477,-4509.330333391468,-16599.90299938953,-30162.852127892034,-21972.100075733673,-18163.049896126973,-34599.5169400593,-187500.02235174447
1741818508.2122836,-14025.138500349343,-4765.816601016117,-16859.116179837725,-30429.30727354375,-22226.105299723782,-18423.850050431498,-34860.98764669748,-187500.02235174447
1741818508.2123344,-13832.958201522613,-4568.964787598227,-16673.350831669668,-30228.32038740163,-22043.17862310155,-18231.71445509368,-34668.62853391511,-187500.02235174447
1741818508.2123744,-13500.878334150117,-4232.794550990409,-16334.856013638499,-29884.66231640128,-21707.701290571844,-17894.58309347428,-34327.76443097168,-187500.02235174447
1741818508.2124183,-13694.332682410799,-4433.155588287782,-16524.063530452673,-30093.941699736322,-21890.605615449622,-18090.63024409178,-34525.75618335679,-187500.02235174447
1741818508.2124584,-14003.971398350168,-4745.6329757729745,-16835.132758037184,-30410.285939012283,-22200.847828489284,-18399.17372455284,-34839.21704759801,-187500.02235174447
1741818508.2124977,-13881.08150733489,-4623.145416157891,-16714.768614145352,-30275.84019611361,-22081.37775437567,-18277.781400416065,-34714.20374085948,-187500.02235174447
1741818508.2125373,-13512.545944755788,-4254.721612301065,-16343.908470142898,-29898.63215668585,-21710.517610373212,-17914.78907046188,-34340.102593911004,-187500.02235174447
1741818508.2125807,-13611.519469203886,-4344.821494200408,-16439.90921257844,-30006.79224810508,-21805.51252430827,-18009.29224601892,-34440.81955442662,-187500.02235174447
1741818508.2126217,-13952.562386102962,-4677.25898948419,-16779.99100446594,-30358.988685487355,-22141.61570568272,-18343.942564003773,-34785.572860905275,-187500.02235174447
1741818508.2126715,-13921.627571776817,-4651.621538593953,-16755.113512887183,-30326.80217347171,-22117.252304226437,-18317.120470657406,-34757.20849719149,-187500.02235174447
1741818508.2127163,-13550.834483007728,-4288.584505150856,-16387.7178892753,-29939.513497294607,-21753.343552749582,-17954.686934314603,-34379.821643808085,-187500.02235174447
1741818508.2127235,-13573.186227463035,-4306.711769904109,-16399.497258603245,-29959.02657020409,-21769.79443666869,-17972.165998478653,-34393.590318392555,-187500.02235174447
1741818508.212731,-13942.861729009359,-4674.576780149553,-16765.75294324791,-30338.223914888375,-22133.18909802307,-18335.560659833034,-34766.52917462935,-187500.02235174447
1741818508.212738,-13986.849962097403,-4717.000391125726,-16815.530278149876,-30382.525072398792,-22175.791522954885,-18381.404087710867,-34815.770067664394,-187500.02235174447
1741818508.2127454,-13608.792556380338,-4337.66893597471,-16440.669171889924,-29993.627070620903,-21798.427021315936,-18013.069690831864,-34436.01392936873,-187500.02235174447
1741818508.2127528,-13529.332104841722,-4262.388260649235,-16354.749066203722,-29912.49023824814,-21722.63225586799,-17931.30700961435,-34350.71967252727,-187500.02235174447
1741818508.2127607,-13887.496457993562,-4615.456416065266,-16702.20693376147,-30269.42524545494,-22081.824789264774,-18276.28383353756,-34699.9880313859,-187500.02235174447
1741818508.21277,-14024.937334649247,-4751.690298520362,-16842.084150562783,-30407.894302355566,-22221.433785132624,-18416.74219569471,-34838.59119875327,-187500.02235174447
1741818508.2127793,-13677.859446747238,-4404.768872829542,-16501.55532378618,-30054.602629494984,-21875.22761526437,-18080.236682920062,-34493.413209129954,-187500.02235174447
1741818508.212787,-13474.23505475939,-4202.105605853272,-16296.03103351963,-29856.96850502116,-21669.368048830995,-17881.19439854555,-34290.07938982003,-187500.02235174447
1741818508.2127943,-13790.668701013174,-4519.209804440714,-16613.157583851527,-30183.840415935567,-21982.31482294975,-18191.526018563036,-34612.12332393209,-187500.02235174447
1741818508.2128017,-14010.475755986663,-4736.804036713128,-16833.99281906996,-30408.117819800118,-22197.986805199005,-18412.07068110355,-34835.03727138487,-187500.02235174447
1741818508.212809,-13748.468607481553,-4467.845495682418,-16572.76798162079,-30133.861915333502,-21934.5267933043,-18146.17432906322,-34569.006808877806,-187500.02235174447
1741818508.2128165,-13505.549848741275,-4219.115283383761,-16327.725807157256,-29887.031601313545,-21691.406868863927,-17899.142849343163,-34322.489419280224,-187500.02235174447
1741818508.2128239,-13776.63180549524,-4494.756996006608,-16603.501630246836,-30174.16211058642,-21968.434389643,-18170.984765408608,-34602.93675696096,-187500.02235174447
1741818508.212833,-14042.77402672458,-4761.905045736438,-16870.359107298747,-30439.65613122656,-22235.984770773026,-18429.03565514513,-34870.375379368714,-187500.02235174447
1741818508.2128403,-13855.801684355938,-4567.444868975266,-16680.30222419527,-30234.288303171197,-22048.431283048547,-18241.92920230975,-34675.334057251705,-187500.02235174447
1741818508.2128477,-13525.509956539865,-4244.126885429249,-16342.030923608652,-29886.361048979885,-21713.44568889686,-17916.30898908484,-34333.30766359659,-187500.02235174447
1741818508.212855,-13703.832173804305,-4421.756198615575,-16516.285123382226,-30070.29355410261,-21888.638661937555,-18090.026746991487,-34512.702764594884,-187500.02235174447
1741818508.2128632,-14034.459177787206,-4752.5620165541195,-16846.778016898395,-30409.928311100997,-22216.605808330278,-18418.798556184596,-34847.80011746885,-187500.02235174447
1741818508.2128708,-13936.312667883954,-4657.321233430056,-16747.84919593921,-30305.925644150455,-22116.71586235951,-18324.071863183006,-34746.92669474205,-187500.02235174447
1741818508.2128785,-13558.367020889167,-4281.789574836442,-16365.232034353261,-29916.602959227916,-21740.290133987684,-17955.491597114993,-34360.308570898604,-187500.02235174447
1741818508.2128863,-13660.358030838732,-4379.0643667059385,-16462.55152971167,-30026.37237624793,-21840.872984036563,-18052.833444217857,-34460.846717458575,-187500.02235174447
1741818508.2128956,-13995.76830813507,-4709.445501499832,-16799.86170528671,-30370.14220597055,-22173.310479320346,-18385.82973311302,-34801.04026806835,-187500.02235174447
1741818508.2129035,-13974.444743924707,-4685.439727954832,-16783.4108213676,-30346.449356847927,-22154.490310488978,-18364.01443052464,-34781.393084692136,-187500.02235174447
1741818508.2129111,-13606.177402279069,-4319.85459564383,-16415.43405239988,-29966.603811574438,-21789.642785745,-17995.814144112366,-34408.342469733056,-187500.02235174447
1741818508.212919,-13611.3630069927,-4328.728238192587,-16418.518593134715,-29979.187843702777,-21789.620434000546,-18003.212571527074,-34415.33856574757,-187500.02235174447
1741818508.2129264,-13948.583775589917,-4667.893608557416,-16756.588728021234,-30328.925589194965,-22124.583676407776,-18339.360456390437,-34759.75659605939,-187500.02235174447
1741818508.2129338,-14005.066633828477,-4721.895423161438,-16814.47974616048,-30385.050819522243,-22183.167598625136,-18395.239817528705,-34817.871131643195,-187500.02235174447
1741818508.2129543,-13649.048048144346,-4363.14992465376,-16457.58944244259,-30014.280082497608,-21830.18885018693,-18045.09974063632,-34454.2306010998,-187500.02235174447
1741818508.2129617,-13537.15521540108,-4252.262920410982,-16341.606240464002,-29908.265758546087,-21713.19981970785,-17938.727788773514,-34340.817849733576,-187500.02235174447
1741818508.2129707,-13859.065039046412,-4574.485668478688,-16664.6336513321,-30241.70908233036,-22029.655817706087,-18253.976792571164,-34668.94145833748,-187500.02235174447
1741818508.2129788,-14023.328009048464,-4737.005202413226,-16832.80817661383,-30403.602767420147,-22194.96931969754,-18409.813154913565,-34833.31618706181,-187500.02235174447
1741818508.2129865,-13702.066385992335,-4416.637649135309,-16512.88765822502,-30070.204147124787,-21875.786408875752,-18096.19582846115,-34508.47828489284,-187500.02235174447
1741818508.212994,-13506.57802898622,-4219.271745594949,-16309.643245892912,-29872.413560439774,-21680.678031525378,-17900.998044132954,-34307.245529561704,-187500.02235174447
1741818508.2130015,-13810.07001520038,-4522.428455642278,-16614.208115840927,-30191.663526494925,-21982.985375283406,-18205.40645186978,-34618.73944029086,-187500.02235174447
1741818508.2130089,-14024.06561661549,-4739.12861813648,-16830.394188212656,-30412.8787413691,-22191.571854540332,-18419.98319864073,-34837.9206464196,-187500.02235174447
1741818508.2130165,-13755.509406984975,-4467.353757304401,-16564.408429194504,-30132.78903159965,-21926.48016530039,-18151.851672154866,-34565.36347453159,-187500.02235174447
1741818508.2130237,-13475.129124537603,-4185.073576578328,-16279.043707733597,-29843.646865325794,-21648.80444393211,-17867.67159315009,-34276.154253024375,-187500.02235174447
1741818508.2130327,-13733.738807885506,-4445.113771571371,-16533.40655963499,-30106.145752208922,-21905.022490623294,-18116.088881026375,-34534.87569509455,-187500.02235174447
1741818508.2130404,-14020.914020647291,-4730.076161632081,-16824.023941042895,-30398.48421793988,-22193.71762200804,-18402.817058899054,-34826.78947768086,-187500.02235174447
1741818508.2130475,-13861.143751280755,-4567.176648041803,-16667.584081600202,-30230.04147172469,-22036.674265465055,-18245.885461078342,-34665.18636526899,-187500.02235174447
1741818508.689499,-13515.697540723986,-4225.262013108971,-16319.478013453248,-29870.29014471652,-21695.54194158816,-17902.607369733738,-34311.31354705257,-187500.02235174447
1741818508.6903768,-13698.333644668299,-4411.764968844052,-16501.331806341626,-30060.503490031184,-21877.954528087917,-18080.43784862016,-34495.60368008658,-187500.02235174447
1741818508.6904223,-14026.747825950126,-4741.2967373486445,-16827.264943988914,-30400.048840051753,-22197.852694732275,-18407.488573490213,-34830.455163771534,-187500.02235174447
1741818508.6904635,-13939.128987685322,-4651.219207193757,-16741.12132085816,-30306.46208601738,-22108.75864133342,-18318.64038928037,-34743.551581329295,-187500.02235174447
1741818508.690504,-13559.663422067575,-4264.578731605856,-16357.498330771725,-29910.567988224982,-21730.410662938437,-17935.68795152759,-34353.89362023993,-187500.02235174447
1741818508.6905444,-13625.198736810535,-4325.867214902308,-16418.563296623623,-29980.26072743663,-21794.22489335834,-17998.272836002452,-34417.17140879291,-187500.02235174447
1741818508.690585,-13975.472924169651,-4676.029643539148,-16771.184417150547,-30340.90612422301,-22144.81200513983,-18344.38959889288,-34772.54179388783,-187500.02235174447
1741818508.6906357,-14008.15117456331,-4702.203536296312,-16810.165859480603,-30368.756397814323,-22184.262834103447,-18365.132017747404,-34806.1141140597,-187500.02235174447
1741818508.690676,-13633.759454936917,-4327.051857358439,-16435.572974154114,-29979.45606463624,-21811.25692263328,-17993.690728389112,-34426.08975483057,-187500.02235174447
1741818508.690716,-13589.88298057115,-4284.695301615632,-16391.20476141033,-29949.39296834385,-21758.551509207668,-17960.207815195063,-34388.360010190016,-187500.02235174447
1741818508.6907556,-13943.66639180975,-4639.5068930991765,-16742.730646458942,-30312.25118783131,-22106.679929099075,-18313.611246777924,-34745.518534841365,-187500.02235174447
1741818508.6907954,-14056.87797747588,-4760.2733683912,-16849.683743677586,-30413.504590213848,-22219.578590342833,-18422.55364925309,-34848.89535294716,-187500.02235174447
1741818508.690838,-13703.47454589302,-4408.523965898034,-16498.26961735125,-30047.42771952483,-21870.176121017474,-18075.833389262367,-34490.909813750965,-187500.02235174447
1741818508.690878,-13563.798494791807,-4266.679795584654,-16358.280641827661,-29912.24436905913,-21732.623485639513,-17938.616030051235,-34351.300817883115,-187500.02235174447
1741818508.6909215,-13889.195190572167,-4590.28835180859,-16682.939730040995,-30249.26397195625,-22055.583841274245,-18255.69787689422,-34681.30197302127,-187500.02235174447
1741818508.6909716,-14061.303622878031,-4760.876865491494,-16859.38440077119,-30424.21107580794,-22232.87787829374,-18429.370931311958,-34856.6290565287,-187500.02235174447
1741818508.6910114,-13764.62891872274,-4462.592835735421,-16566.93417631795,-30115.600540113515,-21940.58411605169,-18143.53682321749,-34556.04279709373,-187500.02235174447
1741818508.6910508,-13545.425360849544,-4241.8246557503535,-16335.191289805329,-29892.35131649391,-21707.276607427193,-17916.800727462858,-34328.010300160684,-187500.02235174447
1741818508.6910908,-13829.717198576594,-4528.75399932313,-16617.09149087566,-30185.516796769716,-21991.143762009593,-18194.40939359777,-34615.5207890893,-187500.02235174447
1741818508.6911304,-14061.057753689021,-4759.759278268728,-16854.131740824192,-30422.11001182914,-22229.614523603264,-18424.006512642685,-34851.42110007061,-187500.02235174447
1741818508.69117,-13825.000980496525,-4523.747208565141,-16625.361636324124,-30177.336058299075,-22001.73848888141,-18193.425916841737,-34614.783181522274,-187500.02235174447
1741818508.691228,-13519.76555821485,-4217.036571149418,-16313.912429083877,-29864.210470224676,-21696.994804977752,-17893.443154507062,-34301.389372514415,-187500.02235174447
1741818508.691269,-13753.944784873103,-4449.137085573326,-16540.827338794155,-30110.10201097751,-21919.61817975261,-18128.851727110356,-34538.250808507306,-187500.02235174447
1741818508.691321,-14055.648631530838,-4748.002260685237,-16840.407769728634,-30415.493895470372,-22216.002311229982,-18423.69358822031,-34842.65921624413,-187500.02235174447
1741818508.6913607,-13909.334112326398,-4601.486575780699,-16698.25067499288,-30256.014198781755,-22074.51576882789,-18273.489865480646,-34693.46132200496,-187500.02235174447
1741818508.6914012,-13564.245529680913,-4254.274577411959,-16354.682010970357,-29901.403772998307,-21735.797433352167,-17929.675332269115,-34342.65069277891,-187500.02235174447
1741818508.691441,-13707.296694194878,-4398.040997748494,-16498.202562117884,-30055.42964403983,-21880.592033933644,-18070.9160054822,-34489.83693001711,-187500.02235174447
1741818508.6914852,-14033.408645797808,-4720.464911516298,-16822.52637416439,-30387.978898045887,-22203.239465146,-18389.249550014683,-34819.74867817744,-187500.02235174447
1741818508.6915283,-13981.351432961397,-4667.312463201579,-16771.586748550744,-30327.04804266072,-22147.248345285458,-18335.739473788675,-34766.775043818365,-187500.02235174447
1741818508.691568,-13609.507812202908,-4295.647656398733,-16399.944293492354,-29946.55429679803,-21776.92464314993,-17968.902643788177,-34390.19285323535,-187500.02235174447
1741818508.6916077,-13648.019867899404,-4334.38322953978,-16435.43886368738,-29995.66107936634,-21811.569847055656,-18007.213533784572,-34430.40364151045,-187500.02235174447
1741818508.6916585,-13990.090965043422,-4677.63896913993,-16779.543969576833,-30349.220973160383,-22153.082150588292,-18350.893956529377,-34779.292020713336,-187500.02235174447
1741818508.6916988,-14025.473776516174,-4713.357056779511,-16816.84903107274,-30383.754418343833,-22191.124819651228,-18390.322433748537,-34817.33468977627,-187500.02235174447
1741818508.691739,-13660.335679094278,-4343.994479655562,-16452.87322436252,-30005.13821901539,-21832.938114754932,-18025.89959214921,-34446.586304496086,-187500.02235174447
1741818508.69178,-13618.448509985032,-4300.050950056428,-16406.314540662115,-29960.948820227248,-21791.274463090238,-17971.674260100634,-34399.75939986222,-187500.02235174447
1741818508.69182,-13952.472979125141,-4635.438875608311,-16742.015390636374,-30309.390164541026,-22119.666292627608,-18306.52574378559,-34740.22117140546,-187500.02235174447
1741818508.6918595,-14055.089837919455,-4737.720458235795,-16848.34263901027,-30414.9798053479,-22221.12086071025,-18412.60712297048,-34846.48136454599,-187500.02235174447
1741818508.6918995,-13723.76992985844,-4398.644494848788,-16518.31913212766,-30069.690057002314,-21893.48899048436,-18081.62249107629,-34510.53464538272,-187500.02235174447
1741818508.6919389,-13574.572035619263,-4251.212388421582,-16365.321441331083,-29919.620444729382,-21747.97913408031,-17926.791957234378,-34356.821698763575,-187500.02235174447
1741818508.6919887,-13911.099900138368,-4595.988046644694,-16700.262331993858,-30264.95489656388,-22080.103704941717,-18263.27511826457,-34695.58473772821,-187500.02235174447
1741818508.6920328,-14081.978986499189,-4768.342348139567,-16868.012174130938,-30438.091509114685,-22241.907983053683,-18437.41755931587,-34870.75535902445,-187500.02235174447
1741818508.6920729,-13796.21193363809,-4472.1593823622925,-16585.687289915953,-30137.460546190807,-21959.69485756098,-18146.934288374698,-34583.826015451676,-187500.02235174447
1741818508.692112,-13552.577919075242,-4219.003524661484,-16346.255403310706,-29893.223034527666,-21721.805241323145,-17899.478125509995,-34341.17547764486,-187500.02235174447
1741818508.6921525,-13827.370265408787,-4500.881373987362,-16621.137156622073,-30184.488616524774,-21995.144724267095,-18181.06540215795,-34622.069850214706,-187500.02235174447
1741818508.6921923,-14091.657291848338,-4776.2772174212005,-16874.404773045157,-30443.88061092861,-22249.97696280205,-18443.16195764088,-34877.05855096085,-187500.02235174447
1741818508.692233,-13884.009585858536,-4572.09403182197,-16665.4830176214,-30225.682881555902,-22039.4011782886,-18244.36554245538,-34665.47693794691,-187500.02235174447
1741818508.6922734,-13560.691602312518,-4253.1569901891935,-16344.735484687744,-29900.464999731186,-21716.619636609514,-17932.26813462593,-34343.053024179106,-187500.02235174447
1741818508.6923232,-13772.943767660114,-4461.363489790379,-16552.6067081221,-30121.188476227344,-21920.936932675475,-18137.747721403568,-34558.725006428365,-187500.02235174447
1741818508.6923633,-14079.050907975545,-4768.476458606298,-16861.060781605338,-30437.15273584756,-22227.804032302385,-18444.480710563745,-34870.26362064643,-187500.02235174447
1741818508.6924033,-13939.196042918687,-4637.137608186914,-16724.15634681658,-30291.128789321043,-22090.407859135612,-18313.991226433664,-34730.565217800766,-187500.02235174447
1741818508.6924431,-13577.410707165089,-4277.475688156568,-16358.32534531657,-29921.095659863433,-21724.39804367996,-17961.012477995453,-34362.968428488784,-187500.02235174447
1741818508.6924832,-13721.512403668452,-4417.665829380254,-16499.11898364055,-30074.60744078248,-21867.024525049274,-18103.750718087045,-34507.003069758786,-187500.02235174447
1741818508.6925228,-14061.124808922388,-4758.574635812597,-16843.29114476337,-30424.099317085664,-22206.458116347567,-18431.494347035212,-34853.388053582676,-187500.02235174447
1741818508.6925669,-14001.468002971174,-4697.822594383072,-16791.45744937151,-30362.788482044758,-22147.114234818728,-18371.68107887281,-34800.92850934607,-187500.02235174447
1741818508.692606,-13610.22306802548,-4302.822566368886,-16401.643026070957,-29964.25687840663,-21757.500977218268,-17989.533303920427,-34405.481446442776,-187500.02235174447
1741818508.6926596,-13632.775978180884,-4329.734066693076,-16419.7255873353,-29990.542529886072,-21780.45621877387,-18013.092042576318,-34425.28509203018,-187500.02235174447
1741818508.6927004,-13987.185238264232,-4684.657416898896,-16773.3078328738,-30351.187926672454,-22127.37764446469,-18363.00860202415,-34781.862471325694,-187500.02235174447
1741818508.69274,-14026.099625360923,-4723.817673184594,-16815.4185194276,-30389.275299224297,-22165.174444338616,-18402.414727498857,-34823.190846823556,-187500.02235174447
1741818508.6928406,-13655.932385436581,-4352.801066970953,-16445.25127950326,-30003.797114348068,-21802.763259740266,-18034.81793818688,-34447.413319040934,-187500.02235174447
1741818508.6928806,-13598.533105675353,-4294.910048831707,-16382.018194439197,-29947.560125298518,-21746.749788135265,-17977.932748548123,-34386.43776016686,-187500.02235174447
1741818508.6929204,-13920.264115365044,-4615.702285254274,-16701.849305850184,-30281.22696652734,-22063.22813787796,-18294.589912246458,-34713.80140945929,-187500.02235174447
1741818508.6929605,-14033.29688707553,-4729.159740109413,-16816.357292694724,-30399.758267373832,-22174.763342709943,-18410.707224691778,-34832.2209515835,-187500.02235174447
1741818508.6930003,-13696.366691156232,-4393.593000601888,-16480.41057353146,-30051.00399863768,-21840.247135191818,-18078.20267417463,-34491.35684864007,-187500.02235174447
1741818508.6930504,-13535.545889800298,-4230.604080033789,-16318.13690878593,-29890.071438559466,-21677.638194279458,-17915.884305940188,-34327.518561782665,-187500.02235174447
1741818508.69309,-13858.685059390673,-4551.083392033982,-16639.398531842056,-30223.671224554924,-22002.20787551497,-18235.313085950984,-34653.74227210788,-187500.02235174447
1741818508.69313,-14081.554303354538,-4773.036214475181,-16866.91693865263,-30453.938895933497,-22227.848735791296,-18460.08222819355,-34881.81947252983,-187500.02235174447
1741818508.693174,-13809.332407633354,-4503.898859488829,-16599.27715054478,-30172.485729752272,-21955.15745343655,-18196.443402343204,-34608.59174830816,-187500.02235174447
1741818508.6932223,-13559.462256367477,-4253.2687489114705,-16343.796711420622,-29916.222979572176,-21703.54386610316,-17945.12038768773,-34350.20558240481,-187500.02235174447
1741818508.693263,-13804.63854129774,-4497.416853596789,-16590.828191140674,-30172.552784985637,-21945.590906809677,-18187.189780138706,-34601.416838338,-187500.02235174447
1741818508.6933024,-14060.320146121998,-4752.7408305097615,-16846.196871542557,-30432.905904401054,-22197.24919763198,-18440.211527372783,-34861.009998441936,-187500.02235174447
1741818508.6933424,-13872.811361886426,-4563.622720673409,-16660.520930352322,-30234.06478572664,-22013.763727398364,-18252.41217045929,-34670.41667347153,-187500.02235174447
1741818508.6933951,-13550.476855096444,-4240.483551083034,-16337.09118808403,-29904.421258499773,-21695.631348565978,-17932.9833904485,-34342.18130614535,-187500.02235174447
1741818508.6934354,-13732.442406707098,-4423.231413749625,-16515.97219895985,-30097.76384803818,-21874.065324552696,-18113.004340291543,-34528.12546826905,-187500.02235174447
1741818508.6934755,-14049.1666256388,-4739.307432092122,-16834.14928128115,-30421.819439151222,-22187.325023093825,-18423.537126009123,-34848.38126282469,-187500.02235174447
1741818508.6935153,-13949.52254885704,-4644.133704201425,-16738.260297567882,-30317.928530922956,-22090.877245769174,-18331.78321502009,-34749.2512761654,-187500.02235174447
1741818508.6935554,-13574.683794341541,-4270.680757842155,-16360.605223251014,-29934.171430369788,-21717.49135464327,-17967.963870521053,-34368.24344018024,-187500.02235174447
1741818508.6935956,-13661.475618061499,-4355.706793750142,-16444.44661670287,-30030.61920769444,-21801.824486473142,-18051.961726184098,-34457.359845323546,-187500.02235174447
1741818508.6936352,-14005.781889651047,-4697.554373449609,-16787.635301069655,-30382.659182865526,-22145.013170839928,-18390.814172126553,-34804.8177128813,-187500.02235174447
1741818508.693676,-13969.348546188898,-4660.182256720335,-16752.654820997097,-30342.470746334882,-22112.267865212903,-18355.051380998062,-34767.602058363205,-187500.02235174447
1741818508.6937304,-13582.126925245158,-4275.665196855688,-16364.80735120861,-29942.754500240626,-21727.59434313707,-17971.540149633904,-34373.406693149416,-187500.02235174447
1741818508.6937704,-13597.326111474767,-4293.792461608942,-16375.469133313793,-29963.563974328517,-21735.484508929792,-17982.827780583833,-34389.20937647932,-187500.02235174447
1741818508.6937983,-13948.85199652338,-4642.434971622822,-16727.576163718244,-30322.734155980845,-22083.098838698726,-18327.06699694002,-34745.585590074734,-187500.02235174447
1741818508.6938066,-14016.175450822766,-4708.21615555479,-16795.346652906734,-30384.96141254442,-22150.154072064648,-18393.965768094753,-34811.52323621789,-187500.02235174447
1741818508.693814,-13644.376533553188,-4335.120837106805,-16426.29700020516,-30000.310242213043,-21786.26767233225,-18025.050225859908,-34435.99157762427,-187500.02235174447
1741818508.6938212,-13559.708125556484,-4249.401897120702,-16340.265135796684,-29922.63793023085,-21701.06282246862,-17939.59950680727,-34352.060777194594,-187500.02235174447
1741818508.6938286,-13923.66158052225,-4611.72367474123,-16702.20693376147,-30297.208463812887,-22054.086274395737,-18296.176886102785,-34721.57981652973,-187500.02235174447
1741818508.693836,-14069.082029948477,-4754.1489904104465,-16849.124950066205,-30441.35486380516,-22201.451325589576,-18442.13377739594,-34869.16838516812,-187500.02235174447
1741818508.6938453,-13757.118732585757,-4440.039925580016,-16540.983801005343,-30116.025223258166,-21897.33349053067,-18130.34929398886,-34552.846497636616,-187500.02235174447
1741818508.6938527,-13576.87426529816,-4265.964539762084,-16353.229147580761,-29934.81963095899,-21711.94812201835,-17957.100922715774,-34367.01409423519,-187500.02235174447
1741818508.69386,-13881.327376523897,-4569.590636442976,-16658.01753497333,-30253.08612025811,-22012.959064597973,-18262.023420575075,-34678.01626658634,-187500.02235174447
1741818508.6938677,-14093.065451749022,-4778.713557566829,-16873.82362768932,-30465.964134450453,-22229.30159918089,-18471.258100421204,-34893.2859174354,-187500.02235174447
1741818508.6938753,-13818.787195537949,-4504.100025188926,-16601.266455801306,-30178.78892168867,-21956.6326685706,-18194.25293138658,-34613.28561464377,-187500.02235174447
1741818508.6938832,-13518.603267503175,-4205.458367521568,-16298.780298087633,-29876.995668053114,-21655.644077735436,-17899.478125509995,-34309.011317373675,-187500.02235174447
1741818508.6938906,-13776.452991539598,-4465.543266003521,-16556.27239421277,-30144.88132534997,-21911.884476171075,-18155.02561986752,-34570.90670715651,-187500.02235174447
1741818508.693898,-14061.504788578128,-4749.611586286019,-16843.916993608116,-30435.632817224603,-22195.729279009018,-18433.5507075251,-34860.25003913046,-187500.02235174447
1741818508.6939073,-13855.779332611482,-4542.969708796705,-16640.38200859809,-30225.45936411135,-21990.853189331676,-18234.195498728215,-34653.6305133856,-187500.02235174447
1741818508.6939144,-13547.973459717448,-4228.704181755088,-16329.491594969226,-29911.01502311409,-21685.081325183073,-17929.720035758022,-34340.03553867764,-187500.02235174447
1741818508.693922,-13737.62801142073,-4417.196442746692,-16519.92845772844,-30112.404240656408,-21876.926347842975,-18114.16663100322,-34534.20514276089,-187500.02235174447
1741818508.6939294,-14053.011125685112,-4745.968251939804,-16829.835394601276,-30430.5813229777,-22188.956700439063,-18433.863631947475,-34845.40848081213,-187500.02235174447
1741818508.6939368,-13941.900603997781,-4641.473846611243,-16718.25548628038,-30309.121943607563,-22074.22519614997,-18327.156403917837,-34730.78873524532,-187500.02235174447
1741818508.6939442,-13551.616794063664,-4252.732307044543,-16333.693722926822,-29916.670014461284,-21690.646909552444,-17949.344867389784,-34343.03067243465,-187500.02235174447
1741818508.6939516,-13676.160714168635,-4372.872933491818,-16455.10839880805,-30049.171155592343,-21817.78363201423,-18065.261014135005,-34469.11686290704,-187500.02235174447
1741818508.6939595,-14032.358113808408,-4727.259841830712,-16813.451565915533,-30413.392831491572,-22174.740990965485,-18415.535201494124,-34828.912893404115,-187500.02235174447
1741818508.6939685,-14026.144328849832,-4720.6884289608515,-16802.633321599165,-30398.864197595623,-22165.688534461086,-18407.130945578927,-34817.17822756508,-187500.02235174447
1741818508.693976,-13644.93532716457,-4337.33365980788,-16415.791680311166,-30007.12752427191,-21784.88186417602,-18030.0570166179,-34428.056708342636,-187500.02235174447
1741818508.693984,-13653.205472613034,-4348.509532035534,-16421.983113525286,-30022.41611747934,-21791.07329739014,-18041.232888845552,-34437.556199736144,-187500.02235174447
1741818508.6939914,-14012.330950776453,-4706.629181698463,-16778.068754442782,-30381.698057853948,-22148.075359830305,-18390.322433748537,-34796.346401732735,-187500.02235174447
1741818508.6939988,-14067.226835158686,-4760.5415893246645,-16837.122063293704,-30436.482183513905,-22208.693290793097,-18448.7051902658,-34853.34335009377,-187500.02235174447
1741818508.6940064,-13692.097507965269,-4383.087680707894,-16465.479608235313,-30048.70176895878,-21841.118853225573,-18078.29208115245,-34473.363694353546,-187500.02235174447
1741818508.6940143,-13566.3018901708,-4256.17447569066,-16337.359409017494,-29926.84005818845,-21717.647816854456,-17949.300163900873,-34344.77410850216,-187500.02235174447
1741818508.6940217,-13904.595542501873,-4592.635284976397,-16676.435372404503,-30274.14146353501,-22055.159158129594,-18276.90968238231,-34687.560461468755,-187500.02235174447
1741818508.6940312,-14067.517407836605,-4757.389993356466,-16836.317400493313,-30431.721261944924,-22214.48239260702,-18435.137681381428,-34848.96240818052,-187500.02235174447
1741818508.6940389,-13740.511386455464,-4433.848492365896,-16511.65831227998,-30098.546159094116,-21889.309214271216,-18119.128718272295,-34521.75522109929,-187500.02235174447
1741818508.694046,-13547.213500405967,-4238.203673148593,-16314.851202351,-29904.48831373314,-21694.91609274341,-17926.523736300915,-34325.37279431496,-187500.02235174447
1741818508.6940534,-13890.849219661859,-4579.023072603116,-16657.481093106402,-30257.75763484927,-22038.395349788112,-18265.152664798818,-34671.75777813885,-187500.02235174447
1741818508.6940608,-14136.94192611479,-4821.852424365571,-16908.692349039597,-30507.71719309297,-22287.393783020234,-18505.52332467119,-34922.946682327594,-187500.02235174447
1741818508.6940684,-13885.887132392781,-4573.770412656118,-16657.39168612858,-30246.738224832803,-22036.94248639852,-18257.62012691738,-34667.82387111472,-187500.02235174447
1741818508.6940868,-13600.2094865095,-4286.75166210552,-16372.295185601139,-29952.388102100864,-21752.158910293452,-17970.869597300243,-34377.34060017355,-187500.02235174447
1741818508.6940951,-13828.398445653731,-4511.610211325909,-16599.5677232227,-30192.11056138403,-21973.798808312276,-18192.21892264115,-34608.927024474986,-187500.02235174447
1741818508.6941044,-14098.675739607304,-4782.960389013337,-16864.659412462643,-30463.21486988245,-22238.17524172965,-18458.539957826135,-34879.20431842856,-187500.02235174447
1741818509.1696897,-13925.963810201147,-4615.746988743185,-16697.4907156814,-30284.691486917913,-22069.352515858714,-18298.05443263703,-34706.60414774468,-187500.02235174447
1741818509.1704707,-13555.684811554529,-4245.892673241219,-16330.028036836153,-29908.601034712916,-21706.38253764898,-17934.413902093638,-34332.95003568531,-187500.02235174447
1741818509.1705232,-13723.166432758146,-4409.1721664872375,-16495.095669638595,-30086.543272321618,-21873.685344896956,-18095.25705519403,-34502.91270052346,-187500.02235174447
1741818509.1705809,-14066.846855502947,-4750.46095257532,-16839.826624372796,-30442.047767883276,-22212.358976883766,-18436.948172682307,-34852.56103903783,-187500.02235174447
1741818509.170617,-13959.62553735084,-4644.334869901522,-16732.940582387517,-30330.91489445149,-22105.696452343043,-18328.92219172981,-34746.92669474205,-187500.02235174447
1741818509.1706617,-13594.129812017658,-4279.263827712993,-16366.282566342661,-29954.288000379565,-21744.715779389833,-17965.482826886517,-34375.88773678395,-187500.02235174447
1741818509.1706982,-13684.60967357274,-4369.274302634514,-16454.437846474393,-30050.735777704216,-21836.648504334513,-18050.710028494603,-34465.182955882905,-187500.02235174447
1741818509.1707344,-14026.859584672402,-4709.333742777556,-16801.22516169848,-30404.698002898458,-22179.01017415645,-18390.992986082198,-34815.010108352915,-187500.02235174447
1741818509.1707706,-14028.15598585081,-4706.2492020427235,-16807.885981546162,-30403.781581375788,-22184.039316658895,-18393.83165762802,-34819.07812584378,-187500.02235174447
1741818509.1708062,-13660.51449304992,-4343.234520344081,-16438.188128255384,-30019.108059299953,-21821.449318104904,-18033.745054453022,-34442.607693983045,-187500.02235174447
1741818509.1708417,-13610.334826747756,-4297.301685488425,-16380.744145005245,-29975.79037854557,-21764.050038343674,-17987.812219597366,-34391.153978246926,-187500.02235174447
1741818509.1708813,-13969.9967467781,-4658.103544485992,-16741.03191388034,-30349.757415027314,-22121.00739729493,-18344.09902621496,-34757.811994291784,-187500.02235174447
1741818509.170917,-14060.051925188534,-4747.778743240684,-16835.6244964152,-30440.25962832685,-22213.655378062176,-18437.529318038145,-34851.44345181507,-187500.02235174447
1741818509.1709623,-13705.32974068281,-4391.111956967349,-16481.751678198776,-30072.864004714967,-21863.89528082553,-18086.785744045468,-34492.7426567963,-187500.02235174447
1741818509.1709976,-13567.553587860297,-4254.274577411959,-16337.962906117787,-29936.183087370766,-21724.241581468774,-17950.149530190174,-34351.12200392747,-187500.02235174447
1741818509.1710331,-13895.61014123084,-4580.364177270434,-16665.304203665757,-30278.164777536964,-22048.475986537458,-18271.09822882393,-34685.07941783422,-187500.02235174447
1741818509.1710727,-14082.426021388295,-4767.001243472248,-16853.014153601427,-30463.68425651601,-22236.700026595598,-18453.823739746065,-34871.71648403603,-187500.02235174447
1741818509.1711087,-13788.165305634178,-4472.382899806846,-16563.022621038275,-30155.878383621977,-21950.977677223407,-18162.871082171332,-34574.41593103599,-187500.02235174447
1741818509.1711445,-13571.643957095619,-4257.2026559356045,-16342.23208930875,-29935.668997248293,-21732.019988539218,-17949.724847045523,-34353.535992328645,-187500.02235174447
1741818509.1711802,-13863.55773968193,-4547.663575132319,-16624.780490968285,-30231.919018258934,-22018.301131522792,-18235.335437695438,-34642.72286209141,-187500.02235174447
1741818509.171216,-14085.890541778868,-4765.771897527206,-16851.270717533913,-30463.103111160173,-22240.700988853096,-18458.495254337224,-34872.118815436224,-187500.02235174447
1741818509.1712608,-13857.88039659028,-4534.878377303884,-16633.251802116847,-30233.28247467071,-22015.998901843894,-18239.403455186304,-34650.45656567295,-187500.02235174447
1741818509.1712968,-13571.286329184333,-4246.563225574878,-16348.959964389798,-29940.34051183945,-21733.875183329008,-17952.340001146797,-34361.49321335473,-187500.02235174447
1741818509.1713324,-13805.197334909122,-4477.769670220575,-16575.13726653305,-30175.88319490948,-21968.05440998726,-18173.286995087507,-34592.25262311132,-187500.02235174447
1741818509.1713755,-14107.50467866715,-4779.473516878309,-16869.509741009446,-30476.245936899893,-22269.69120141163,-18467.927690497363,-34889.32965866681,-187500.02235174447
1741818509.1714113,-13954.99872624859,-4629.828587750028,-16720.244791536905,-30313.145257609518,-22121.387376950668,-18316.986360190673,-34736.10845042568,-187500.02235174447
1741818509.1714635,-13593.97334980647,-4267.707975829599,-16357.028944138165,-29942.553334540527,-21760.786683653198,-17960.31957391734,-34369.361027403,-187500.02235174447
1741818509.1715035,-13756.761104674471,-4429.087570796915,-16512.775899502743,-30115.265263946687,-21918.545296018758,-18120.87215433981,-34529.8018491032,-187500.02235174447
1741818509.1715436,-14090.69616683676,-4760.519237580209,-16850.62251694471,-30458.9903901804,-22250.893384324718,-18449.241632132725,-34870.08480669079,-187500.02235174447
1741818509.1715937,-14016.421320011774,-4691.3405884910335,-16785.444830113036,-30378.747627585846,-22178.987822411993,-18379.370078965436,-34800.14619829014,-187500.02235174447
1741818509.1716335,-13635.391132282155,-4312.992610096051,-16405.01813948371,-29990.095494996967,-21801.019823672752,-18009.068728574362,-34416.25498727024,-187500.02235174447
1741818509.1716733,-13679.692289792572,-4353.426915815701,-16443.88782309149,-30039.04581535409,-21845.276277694258,-18043.691580735634,-34458.72330173532,-187500.02235174447
1741818509.1717126,-14020.109357846899,-4691.228829768757,-16787.12121094718,-30387.19658698995,-22187.615595771742,-18375.68204113031,-34803.99069833645,-187500.02235174447
1741818509.1717525,-14029.564145751494,-4702.7846816521505,-16800.84518204274,-30399.870026096112,-22191.661261518155,-18394.68102391732,-34819.815733410804,-187500.02235174447
1741818509.1717916,-13693.505667865953,-4370.168372412726,-16463.11032332305,-30052.903896916378,-21855.692190610433,-18069.932528726164,-34478.8398717451,-187500.02235174447
1741818509.171832,-13653.89837669115,-4331.723371949598,-16416.819860556112,-30014.70476564226,-21818.744757025812,-18030.86167941829,-34434.695176445864,-187500.02235174447
1741818509.1718717,-14000.283360515043,-4674.777945849651,-16763.964803691484,-30368.689342580958,-22166.470845517022,-18373.469218429236,-34785.03641903835,-187500.02235174447
1741818509.1719258,-14120.960428829245,-4791.56581062863,-16888.19579937408,-30487.868844016655,-22288.22079756508,-18487.84309480704,-34908.46275192055,-187500.02235174447
1741818509.1719656,-13770.283910069933,-4442.297451770002,-16535.529975358248,-30117.634548858947,-21936.426691583,-18134.707884157644,-34548.68907316793,-187500.02235174447
1741818509.1720057,-13608.569038935786,-4282.616589381289,-16368.830665210566,-29954.377407357384,-21770.152064579972,-17975.071725257843,-34382.14622523144,-187500.02235174447
1741818509.1720457,-13951.534205858017,-4626.744047015196,-16712.891067611108,-30311.021841886264,-22112.156106490627,-18320.070900925508,-34731.3475288567,-187500.02235174447
1741818509.1720853,-14147.067266353044,-4816.398598718476,-16909.653474051174,-30504.36443142467,-22308.806754208417,-18505.09864152654,-34927.50643819648,-187500.02235174447
1741818509.1721249,-13852.985364554568,-4524.238946943158,-16617.09149087566,-30198.525512042706,-22018.41289024507,-18215.151812452295,-34630.13882996307,-187500.02235174447
1741818509.172181,-13618.247344284933,-4294.977104065073,-16378.777191493178,-29962.31227663902,-21781.30558506317,-17986.873446330243,-34390.97516429128,-187500.02235174447
1741818509.1722212,-13890.022205117013,-4568.361290497934,-16652.027267459307,-30249.822765567635,-22049.370056315667,-18258.536548440046,-34671.04252231628,-187500.02235174447
1741818509.1722715,-14120.379283473407,-4795.991456030781,-16885.5359417839,-30485.52191084885,-22277.3578497598,-18484.602091861023,-34906.316984452846,-187500.02235174447
1741818509.1723125,-13896.772431942516,-4572.116383566426,-16665.751238554865,-30251.722663846336,-22058.288402353337,-18258.156568784307,-34682.57602245522,-187500.02235174447
1741818509.1724143,-13587.200771236512,-4258.521408858467,-16354.972583648276,-29932.83032570247,-21756.629259184512,-17948.249631911473,-34366.969390746286,-187500.02235174447
1741818509.1724553,-13795.563733048884,-4469.253655583102,-16560.78744659274,-30156.548935955638,-21958.554918593756,-18160.680611214713,-34580.09327412764,-187500.02235174447
1741818509.1724951,-14092.908989537835,-4768.789383028672,-16858.91501413763,-30460.97969543692,-22251.07219828036,-18457.13179792545,-34882.44532137457,-187500.02235174447
1741818509.1725388,-13957.90445302778,-4632.041410451104,-16726.525631728844,-30315.38043205505,-22122.23674323997,-18322.663703282324,-34744.959741229985,-187500.02235174447
1741818509.1725788,-13594.800364351317,-4270.010205508495,-16362.23690059625,-29942.933314196267,-21762.954802865363,-17966.26513794245,-34375.88773678395,-187500.02235174447
1741818509.1726184,-13728.799072360884,-4401.259648950058,-16493.93337892692,-30086.878548488447,-21896.23825505236,-18094.58650286037,-34511.56282562767,-187500.02235174447
1741818509.172668,-14061.303622878031,-4736.044077401648,-16824.672141632098,-30432.391814278584,-22224.339511911814,-18430.153242367895,-34849.118870391714,-187500.02235174447
1741818509.172708,-14024.982038138156,-4698.627257183463,-16790.093992959737,-30387.509511412325,-22190.92365395113,-18393.518733205645,-34811.25501528443,-187500.02235174447
1741818509.1727476,-13624.88581238816,-4300.52033668999,-16391.785906766167,-29978.561994858028,-21794.560169525168,-18000.23978951452,-34409.08007730008,-187500.02235174447
1741818509.172787,-13642.878966674682,-4322.961488123118,-16405.39811913945,-30005.249977737665,-21797.60000677109,-18016.869487389267,-34428.48139148729,-187500.02235174447
1741818509.1728275,-14000.1045465594,-4681.103489530503,-16767.071696170773,-30377.473578151894,-22147.650676685655,-18372.709259117753,-34794.49120694294,-187500.02235174447
1741818509.1728678,-14031.642857985838,-4717.045094614637,-16805.56140012281,-30416.052689081753,-22189.87312196173,-18414.77524218264,-34836.043099885355,-187500.02235174447
1741818509.1729076,-13642.297821318845,-4331.723371949598,-16425.045302515664,-30023.22078027973,-21798.13644863802,-18038.729493466555,-34453.649455743966,-187500.02235174447
1741818509.172948,-13579.44471591052,-4256.599158835311,-16360.895795928933,-29961.26174464962,-21740.938334576887,-17966.041620497897,-34388.24825146774,-187500.02235174447
1741818509.1729972,-13956.675107082738,-4626.29701212609,-16721.809413648774,-30326.7574699828,-22117.207600737525,-18317.99218869116,-34748.44661336501,-187500.02235174447
1741818509.1730373,-14096.977007028701,-4766.487153349776,-16860.166711827125,-30458.766872735843,-22262.35982923029,-18451.6556205339,-34883.294687663874,-187500.02235174447
1741818509.1730812,-13778.419945051664,-4447.706573928186,-16545.297687685215,-30127.514019908194,-21944.652133542557,-18137.434796981193,-34562.8600791526,-187500.02235174447
1741818509.1731217,-13598.175477764069,-4268.490286885534,-16363.28743258565,-29950.801128244537,-21762.26189878725,-17963.717039074545,-34381.430969408866,-187500.02235174447
1741818509.1731613,-13922.543993299485,-4587.67319770732,-16691.075765022728,-30285.764370651767,-22088.79853353483,-18278.787228916553,-34710.91803442455,-187500.02235174447
1741818509.173201,-14125.430777720307,-4784.32384542511,-16891.68267150911,-30483.152625936586,-22297.40736453621,-18471.168693443382,-34910.5414641549,-187500.02235174447
1741818509.173241,-13831.482986388564,-4486.486850558144,-16597.80193541073,-30171.45754950733,-22009.65100641859,-18172.102352631373,-34609.86579774211,-187500.02235174447
1741818509.1732812,-13583.311567701288,-4236.147312658705,-16346.970659133276,-29916.44649701673,-21759.222061541328,-17914.386739061683,-34355.10061444052,-187500.02235174447
1741818509.1733315,-13849.923175564192,-4499.853193742418,-16615.10218561914,-30192.334078828586,-22028.91821013906,-18171.83413169791,-34625.690832816465,-187500.02235174447
1741818509.173375,-14099.100422751955,-4751.6232432869965,-16862.53599673939,-30447.322779574726,-22278.006050349006,-18422.732463208733,-34877.05855096085,-187500.02235174447
1741818509.1734147,-13905.04257739098,-4557.878322348395,-16673.216721202938,-30250.247448712285,-22084.21642592149,-18234.866051061876,-34687.985144613405,-187500.02235174447
1741818509.1734545,-13567.01714599337,-4215.673114737644,-16334.230164793751,-29904.77888641106,-21746.6827329019,-17896.907674897633,-34344.997625946715,-187500.02235174447
1741818509.1734946,-13778.554055518396,-4431.143931286804,-16542.995458006317,-30129.30215946462,-21949.614220811633,-18111.327959457394,-34558.68030293945,-187500.02235174447
1741818509.1735394,-14084.817658045014,-4737.407533813422,-16857.842130403773,-30446.428709796517,-22257.93418382814,-18418.418576528857,-34873.9293067371,-187500.02235174447
1741818509.1735468,-13973.505970657585,-4623.815968491551,-16747.156291861094,-30325.416365315483,-22157.083112845794,-18306.7716129746,-34761.522383871365,-187500.02235174447
1741818509.173555,-13618.292047773844,-4268.579693863356,-16391.964720721808,-29960.524137082593,-21805.55722779718,-17953.189367436098,-34401.65929814092,-187500.02235174447
1741818509.1735644,-13711.230601219011,-4359.126610651804,-16483.02572763273,-30062.604554009984,-21897.020566108295,-18037.18722309914,-34497.123598709535,-187500.02235174447
1741818509.1735718,-14031.419340541284,-4674.912056316382,-16805.539048378356,-30391.465770180916,-22216.426994374633,-18350.938660018284,-34821.98385262297,-187500.02235174447
1741818509.1735795,-14012.82268915447,-4660.204608464791,-16792.21740868299,-30371.8185868047,-22201.183104656113,-18341.77444479161,-34806.53879720435,-187500.02235174447
1741818509.1735866,-13635.637001471163,-4284.807060337908,-16414.964665766318,-29984.999297261158,-21827.28312340774,-17971.674260100634,-34425.9779961083,-187500.02235174447
1741818509.173594,-13638.676838717085,-4289.99266505154,-16414.04824424365,-29997.51627415613,-21824.04212046172,-17976.144608991697,-34431.543580477664,-187500.02235174447
1741818509.1736012,-13997.020005824568,-4649.185198448325,-16770.22329213897,-30363.615496589602,-22181.848845702272,-18329.816261508022,-34793.28421274236,-187500.02235174447
1741818509.1736085,-14050.373619839385,-4705.243373542235,-16826.437929444066,-30416.16444780403,-22235.895363795207,-18385.673270901832,-34848.068338402314,-187500.02235174447
1741818509.173616,-13696.210228945045,-4353.113991393327,-16478.041288619195,-30051.13810910441,-21884.57064444669,-18037.164871354686,-34491.602717829075,-187500.02235174447
1741818509.1736252,-13597.16964926358,-4256.643862324222,-16376.81023798111,-29959.69712253775,-21781.819675185645,-17943.13108243121,-34393.34444920355,-187500.02235174447
1741818509.1736324,-13920.912315954247,-4578.777203414107,-16700.865829094153,-30294.459199244884,-22105.785859320862,-18261.263461263592,-34721.82568571874,-187500.02235174447
1741818509.17364,-14051.0665239175,-4706.964457865293,-16835.602144670742,-30423.518171729826,-22238.17524172965,-18387.237893013706,-34853.65627451614,-187500.02235174447
1741818509.1736472,-13758.504540741986,-4413.06137002246,-16541.162614960984,-30117.29927269212,-21946.194403909973,-18093.379508659782,-34555.84163139363,-187500.02235174447
1741818509.1736567,-13580.025861266358,-4234.202710891093,-16355.933708659853,-29935.512535037105,-21766.93341337841,-17912.21861984952,-34372.199698948825,-187500.02235174447
1741818509.173664,-13882.757888169037,-4531.458560402222,-16657.99518322887,-30246.201782965876,-22070.02306819237,-18208.066309459962,-34678.10567356416,-187500.02235174447
1741818509.1736715,-14089.31035868053,-4738.323955336089,-16868.43685727559,-30458.185727380005,-22277.737829415542,-18420.094957363006,-34888.972030755525,-187500.02235174447
1741818509.173679,-13818.720140304584,-4470.192428850225,-16602.13817383506,-30176.911375154425,-22013.674320420545,-18157.663125713247,-34615.87841700058,-187500.02235174447
1741818509.1736884,-13543.30194512629,-4193.522535982434,-16321.154394287396,-29896.53109270705,-21736.758558363745,-17880.747363656446,-34334.00056767471,-187500.02235174447
1741818509.1736956,-13799.944674962126,-4451.5510739745,-16575.00315606632,-30166.361351771517,-21988.34979395268,-18133.16561379023,-34594.443094067945,-187500.02235174447
1741818509.173703,-14084.750602811648,-4735.194711112346,-16863.653583962154,-30453.35775057766,-22278.83306489385,-18411.824811914543,-34881.551251596364,-187500.02235174447
1741818509.1737103,-13902.114498867333,-4554.771429869107,-16684.258482963858,-30263.412626196463,-22098.99092900645,-18236.296562707015,-34699.1386650966,-187500.02235174447
1741818509.1737185,-13578.505942643398,-4232.0792951678395,-16356.492502271236,-29929.63402624536,-21775.11415184905,-17917.873611196712,-34367.57288784658,-187500.02235174447
1741818509.1737258,-13763.846607666805,-4415.475358423634,-16540.313248671682,-30122.66369136139,-21958.01847672683,-18098.766279073512,-34553.98643660384,-187500.02235174447
1741818509.1737332,-14056.274480375587,-4709.356094522011,-16836.00447607094,-30423.16054381854,-22245.79718658891,-18383.572206923032,-34851.86813495972,-187500.02235174447
1741818509.1737404,-13960.541958873506,-4614.2717736091345,-16743.31179181478,-30318.80024895671,-22154.870290144718,-18284.263406308106,-34755.442709379524,-187500.02235174447
1741818509.17375,-13596.163820763091,-4248.9325104871405,-16378.62072928199,-29943.916790952302,-21796.728288737333,-17924.579134533302,-34385.29782119964,-187500.02235174447
1741818509.173758,-13684.788487528383,-4337.4454185301565,-16461.612756444545,-30041.50450724417,-21882.55898744571,-18012.75676640949,-34475.39770309898,-187500.02235174447
1741818509.1737652,-14020.44463401373,-4673.503896415698,-16800.129926220172,-30389.409409691027,-22217.857506019773,-18345.82011053802,-34817.446448498544,-187500.02235174447
1741818509.1737728,-14022.836270670447,-4674.353262705,-16806.544876878845,-30385.564909644716,-22222.797241544395,-18348.904651272853,-34819.1675328216,-187500.02235174447
1741818509.17378,-13641.537862007364,-4293.211316253104,-16425.380578682492,-29990.810750819535,-21843.51048988229,-17973.596510123793,-34431.65533919994,-187500.02235174447
1741818509.173787,-13635.659353215618,-4289.009188295507,-16415.456404144337,-29989.02261126311,-21837.028483990252,-17970.51196938896,-34423.2734350292,-187500.02235174447
1741818509.173806,-14001.780927393547,-4654.661375839874,-16783.83550451225,-30366.789444302256,-22203.19476165709,-18330.53151733059,-34797.62045116669,-187500.02235174447
1741818509.173813,-14062.532968823072,-4715.413417269399,-16848.163825054628,-30426.44625025347,-22264.952631587104,-18389.71893664824,-34860.54061180838,-187500.02235174447
1741818509.1738224,-13704.882705793705,-4355.9973664280615,-16491.519390525747,-30054.200298094787,-21908.598769736145,-18035.644952731724,-34496.9447847539,-187500.02235174447
1741818509.17383,-13577.701279843008,-4230.872300967253,-16363.063915141096,-29932.249180346633,-21781.68556471891,-17913.24680009446,-34369.696303569835,-187500.02235174447
1741818509.1738377,-13906.1825163582,-4559.219427015713,-16691.075765022728,-30274.521443190748,-22109.675062856088,-18238.554088897003,-34703.564310498754,-187500.02235174447
1741818509.1738453,-14065.25988164662,-4717.492129503743,-16854.936403624582,-30436.862163169644,-22268.39480023322,-18392.311739005057,-34866.21795490002,-187500.02235174447
1741818509.1738524,-13779.761049718983,-4429.802826619485,-16572.94679557643,-30137.90758107991,-21987.232206729914,-18109.115136756318,-34576.38288454806,-187500.02235174447
1741818509.17386,-13581.322262444766,-4232.749847501498,-16368.897720443932,-29936.719529237693,-21786.26767233225,-17916.01841640692,-34371.6632570819,-187500.02235174447
1741818509.1738684,-13872.99017584207,-4524.976554510183,-16658.68808730699,-30239.22803869582,-22073.75580951641,-18203.528905335537,-34667.488594947885,-187500.02235174447
1741818509.1738756,-14085.085878978478,-4739.553301281131,-16868.839188675785,-30455.391759323094,-22281.73879167304,-18412.92004739285,-34881.26067891844,-187500.02235174447
1741818509.1738849,-13835.059265501413,-4491.851269227418,-16620.01956939931,-30200.425410321404,-22034.908477653084,-18173.73402997661,-34632.03872824177,-187500.02235174447
1741818509.1738923,-13563.865550025172,-4217.8188822053535,-16347.28358355565,-29919.01694762909,-21767.782779667712,-17902.20503833354,-34355.72646328527,-187500.02235174447
1741818509.1738997,-13805.510259331497,-4458.88244615584,-16587.788353894754,-30167.54599422765,-22008.421660473545,-18139.669971426723,-34597.63939352505,-187500.02235174447
1741818509.6501603,-14067.428000858785,-4720.733132449762,-16850.063723333325,-30437.577418992212,-22266.964288588082,-18399.196076297292,-34864.07218743231,-187500.02235174447
1741818509.651026,-13893.106745851845,-4548.803514099541,-16682.67150910753,-30260.328085461628,-22092.911254514605,-18230.84273705992,-34693.640135960595,-187500.02235174447
1741818509.6510713,-13571.174570462057,-4228.614774777267,-16358.638269738945,-29931.53392452406,-21779.562148995657,-17913.8279454503,-34366.94703900183,-187500.02235174447
1741818509.651116,-13744.422941735142,-4400.410282660757,-16529.070321210664,-30111.7560400672,-21951.82704351271,-18081.42132537619,-34540.21776201937,-187500.02235174447
1741818509.6511629,-14014.342607777431,-4669.793506836118,-16802.90154253263,-30389.767037602312,-22218.72922405353,-18353.15148271936,-34814.74188741945,-187500.02235174447
1741818509.6512136,-13917.85012696387,-4570.976444599205,-16709.560657687267,-30288.446579986405,-22124.360158963224,-18254.200310015716,-34719.366993828655,-187500.02235174447
1741818509.651254,-13585.010300279893,-4238.404838848691,-16373.971566435286,-29939.60290427243,-21794.761335225267,-17921.002855420455,-34378.30172518513,-187500.02235174447
1741818509.6512947,-13666.616519286219,-4320.905127633229,-16454.661363918945,-30028.60755069346,-21875.94287108694,-18004.531324449938,-34460.46673780283,-187500.02235174447
1741818509.6513395,-13981.999633550602,-4635.952965730782,-16769.776257249865,-30352.14905168403,-22187.481485305012,-18316.20404913474,-34779.850814324716,-187500.02235174447
1741818509.65138,-13958.507950128074,-4612.640096263897,-16749.03383839534,-30327.785650227746,-22164.973278638518,-18294.61226399091,-34758.01315999188,-187500.02235174447
1741818509.65142,-13630.473748501987,-4283.957694048607,-16419.323255935105,-29989.55905313004,-21839.755396813798,-17969.506140888472,-34425.262740285725,-187500.02235174447
1741818509.6514602,-13637.291030560855,-4287.42221443918,-16420.038511757673,-29999.304413712554,-21843.197565459915,-17968.947347277088,-34428.704908931846,-187500.02235174447
1741818509.6515005,-13943.912260998757,-4594.065796621537,-16725.184527061527,-30313.927568665455,-22145.90724061814,-18273.534568969557,-34738.030700448835,-187500.02235174447
1741818509.6515515,-14009.067596085979,-4663.602073621997,-16798.721766319486,-30382.525072398792,-22216.33758739681,-18345.686000071288,-34809.489227472455,-187500.02235174447
1741818509.6515923,-13706.00029301647,-4361.361785097335,-16497.30849233967,-30066.98549592322,-21916.421880295504,-18044.920926680676,-34503.069162734646,-187500.02235174447
1741818509.6516323,-13587.938378803537,-4241.26586213897,-16374.753877491223,-29948.007160187623,-21796.951806181885,-17924.534431044394,-34380.022809508184,-187500.02235174447
1741818509.6516726,-13874.197170042655,-4523.501339376133,-16659.783322785297,-30237.37284390603,-22083.478818354466,-18202.52307683505,-34666.57217342522,-187500.02235174447
1741818509.6517124,-14039.108340633911,-4691.653512913408,-16825.74502536595,-30404.943872087464,-22248.54645115691,-18369.915291060843,-34833.047966128346,-187500.02235174447
1741818509.6517515,-13798.558866805895,-4452.869826897362,-16583.18389453696,-30154.20200278783,-22009.36043374067,-18133.053855067952,-34590.48683529936,-187500.02235174447
1741818509.651792,-13605.931533090059,-4260.13073445925,-16388.321386375595,-29959.25008764864,-21818.811812259177,-17936.649076539168,-34394.84201608205,-187500.02235174447
1741818509.6518316,-13854.997021555546,-4509.777368280575,-16636.112825407126,-30218.798544263667,-22062.110550655194,-18183.34528009239,-34646.61206562663,-187500.02235174447
1741818509.6519048,-14033.92273592028,-4689.418338467877,-16821.542897408355,-30404.63094766509,-22244.657247621686,-18362.270994457125,-34830.946902149546,-187500.02235174447
1741818509.6519456,-13838.54613763644,-4497.036873941049,-16628.04384565876,-30200.850093466055,-22054.332143584747,-18167.654355484767,-34635.972635265905,-187500.02235174447
1741818509.6519856,-13603.696358644529,-4262.857647282797,-16391.33887187706,-29965.50857609613,-21818.565943070167,-17938.50427132896,-34399.22295799529,-187500.02235174447
1741818509.6520257,-13836.512128891007,-4494.2876093730465,-16623.5734967677,-30208.8296662366,-22047.760730714886,-18171.364745064348,-34635.056213743235,-187500.02235174447
1741818509.6520667,-14074.088820706465,-4727.483359275265,-16862.20072057256,-30447.389834808095,-22288.17609407617,-18401.475954231733,-34873.37051312572,-187500.02235174447
1741818509.6521063,-13919.928839198214,-4577.9948923581715,-16713.896896111597,-30293.94510912241,-22132.987932322972,-18256.413132716792,-34724.97728168694,-187500.02235174447
1741818509.6521463,-13623.432948998565,-4283.957694048607,-16417.423357656404,-29994.677602610303,-21839.80010030271,-17965.304012930872,-34427.31910077561,-187500.02235174447
1741818509.6521869,-13763.064296610868,-4425.578346917432,-16553.344315689126,-30140.880363092467,-21976.391610669092,-18103.706014598134,-34568.11273909959,-187500.02235174447
1741818509.6522367,-14050.619489028393,-4712.842966657039,-16841.726522651497,-30434.291712557282,-22261.84573910782,-18385.673270901832,-34857.41136758463,-187500.02235174447
1741818509.6522765,-13992.326139488952,-4650.1910269488135,-16785.84716151323,-30368.599935603135,-22211.01787221645,-18321.121432914904,-34797.41928546659,-187500.02235174447
1741818509.6523204,-13666.661222775128,-4326.314249791414,-16462.10449482256,-30036.296550786086,-21890.247987538336,-18000.575065681347,-34469.943877451886,-187500.02235174447
1741818509.652361,-13684.140286939179,-4348.755401224542,-16479.270634564236,-30066.314943589565,-21899.635720209568,-18027.62067647227,-34490.909813750965,-187500.02235174447
1741818509.6524007,-14007.055939085001,-4672.676881870852,-16799.70524307552,-30394.43855219347,-22218.68452056462,-18348.479968128202,-34813.17726530758,-187500.02235174447
1741818509.6524448,-14049.278384361076,-4712.798263168128,-16844.90047036415,-30431.20717182245,-22267.12075079927,-18383.125172033928,-34855.355007094746,-187500.02235174447
1741818509.652485,-13705.016816260437,-4363.909883965241,-16503.45522206488,-30075.99324893871,-21927.798918223252,-18036.18139459865,-34507.98654651482,-187500.02235174447
1741818509.652526,-13633.826510170284,-4293.345426719836,-16430.365017696025,-30011.776687118614,-21853.546423142725,-17967.22626295403,-34435.90217064645,-187500.02235174447
1741818509.652576,-13943.576984831929,-4603.922915926328,-16739.199070835002,-30330.24434211783,-22163.16278733764,-18274.763914914598,-34748.71483429847,-187500.02235174447
1741818509.6526155,-14041.20940461271,-4705.578649709064,-16835.915069093116,-30427.87676189861,-22256.235451249537,-18375.503227174668,-34847.733062235486,-187500.02235174447
1741818509.6527176,-13750.659078438173,-4417.084684024416,-16550.12566448756,-30132.274941477175,-21968.792017554286,-18091.144334214252,-34557.56271571669,-187500.02235174447
1741818509.652758,-13615.766300650395,-4279.375586435269,-16414.361168666026,-29991.83893106448,-21839.062492735684,-17949.166053434143,-34418.80308613814,-187500.02235174447
1741818509.652798,-13917.067815907934,-4579.425404003311,-16713.583971689222,-30299.510693491782,-22133.5243741899,-18243.627934888358,-34722.89856945259,-187500.02235174447
1741818509.652838,-14099.547457641062,-4762.79911551465,-16897.47177332303,-30486.12540794914,-22314.484097300065,-18428.096881878006,-34909.178007743125,-187500.02235174447
1741818509.652878,-13836.757998080016,-4498.154461163815,-16639.309124864238,-30218.060936696642,-22056.36615233018,-18168.660183985256,-34648.400205183054,-187500.02235174447
1741818509.652918,-13593.571018406275,-4250.899463999208,-16394.691633545357,-29971.65530582134,-21819.08003319264,-17923.21567812153,-34400.42995219588,-187500.02235174447
1741818509.6529686,-13803.655064541706,-4459.240074067125,-16608.307255304724,-30194.39043931847,-22030.818108417763,-18131.645695167266,-34618.0241844683,-187500.02235174447
1741818509.6530097,-14024.512651504596,-4683.003387809204,-16834.462205703523,-30425.798049664267,-22253.039151792425,-18357.621831610424,-34847.97893142449,-187500.02235174447
1741818509.653054,-13840.446035915142,-4505.396426367334,-16646.573441812212,-30232.053128725664,-22069.754847258908,-18183.300576603484,-34659.66548438853,-187500.02235174447
1741818509.6530936,-13582.149276989614,-4253.894597756219,-16379.984185693764,-29968.07902670849,-21806.719518508857,-17935.486785827492,-34393.366800948,-187500.02235174447
1741818509.6531336,-13790.378128335255,-4461.899931657306,-16585.508475960312,-30181.649944978948,-22010.63448317462,-18133.50088995706,-34601.26037612681,-187500.02235174447
1741818509.6531732,-14057.68264027627,-4727.639821486452,-16854.355258268744,-30452.106052888164,-22276.77670440396,-18396.6926809183,-34871.26944914692,-187500.02235174447
1741818509.6532125,-13930.32240036993,-4599.720787968729,-16738.17089059006,-30325.259903104296,-22153.7303511775,-18273.24399629164,-34752.425223878054,-187500.02235174447
1741818509.6532528,-13614.067568071792,-4283.175382992671,-16419.21149721283,-29995.437561921786,-21838.950734013408,-17958.844358783288,-34428.615501954024,-187500.02235174447
1741818509.653303,-13723.009970546958,-4391.111956967349,-16523.348274630105,-30111.91250227839,-21943.288677130782,-18065.059848434907,-34535.45684045039,-187500.02235174447
1741818509.6533432,-14013.470889743674,-4684.635065154442,-16818.391301440155,-30416.186799548486,-22232.63200910473,-18359.052343255564,-34833.62911148419,-187500.02235174447
1741818509.6533828,-13963.402982163785,-4632.376686617933,-16773.12901891816,-30360.91093551051,-22191.169523140135,-18306.883371696877,-34784.812901593796,-187500.02235174447
1741818509.6534228,-13646.567004509809,-4316.457130486623,-16457.365924998037,-30034.910742629858,-21880.457923466915,-17994.6965568896,-34463.372464582026,-187500.02235174447
1741818509.6534624,-13663.710792507029,-4337.311308063425,-16468.45239024787,-30062.112815631965,-21892.43845849496,-18016.66832168917,-34480.89623223498,-187500.02235174447
1741818509.6535068,-13961.033697251523,-4635.483579097221,-16765.730591503452,-30368.465825136405,-22185.939214937596,-18315.667607267813,-34783.71766611549,-187500.02235174447
1741818509.6535468,-13960.609014106873,-4636.958794231271,-16768.435152582544,-30369.11402572561,-22181.91590093564,-18320.517935814612,-34787.115131272694,-187500.02235174447
1741818509.653591,-13626.897469389138,-4304.789519880953,-16436.958782310343,-30024.02544308012,-21852.451187664414,-17994.383632467227,-34449.46967953083,-187500.02235174447
1741818509.6536417,-13567.173608204557,-4244.976251718552,-16373.077496657073,-29967.900212752847,-21793.487285791314,-17934.480957327003,-34387.42123692289,-187500.02235174447
1741818509.653682,-13876.74526891056,-4553.85500834644,-16682.269177707338,-30287.463103230373,-22101.56137961881,-18241.07983602045,-34701.21737733095,-187500.02235174447
1741818509.6537223,-13977.9986712931,-4653.387326405922,-16784.394298123636,-30387.44245617896,-22204.87114249124,-18340.276877913104,-34804.28127101437,-187500.02235174447
1741818509.6537623,-13678.70881303654,-4354.723316994109,-16486.914931167954,-30079.368362351463,-21908.084679613672,-18045.770292969977,-34503.762066812764,-187500.02235174447
1741818509.6538022,-13542.67609628154,-4218.154158372183,-16349.47405451227,-29946.10726190892,-21772.141369836496,-17907.770622702912,-34366.969390746286,-187500.02235174447
1741818509.6538417,-13835.908631790715,-4507.765711279597,-16641.72311326541,-30245.911210287955,-22064.90451871211,-18191.16839065175,-34663.91231583504,-187500.02235174447
1741818509.6538916,-14000.797450637514,-4670.508762658687,-16809.47295540249,-30413.281072769296,-22225.658264834674,-18355.520767631624,-34830.879846916185,-187500.02235174447
1741818509.653932,-13753.855377895283,-4425.891271339807,-16564.006097794307,-30156.459528977815,-21982.784209583308,-18116.53591591548,-34582.03787589525,-187500.02235174447
1741818509.6539836,-13539.032761935327,-4212.342704813803,-16346.14364458843,-29938.530020538572,-21771.917852391944,-17905.334282557284,-34362.94607674433,-187500.02235174447
1741818509.654024,-13792.188619636134,-4463.956292147194,-16598.897170889042,-30199.263119609728,-22024.872544392652,-18155.45030301217,-34616.9736524789,-187500.02235174447
1741818509.654064,-14021.562221236494,-4687.83136461155,-16830.796519612853,-30432.0341863673,-22256.280154738448,-18374.519750418636,-34849.14122213617,-187500.02235174447
1741818509.654104,-13807.656026799206,-4476.428565553256,-16617.38206355358,-30211.93655871589,-22037.657742221087,-18161.105294359364,-34637.06787074421,-187500.02235174447
1741818509.6541483,-13498.732566682407,-4171.751936882965,-16302.021301033654,-29898.766267152583,-21724.196877979863,-17861.30134598033,-34324.14344836992,-187500.02235174447
1741818509.654188,-13691.650473076163,-4362.121744408816,-16488.792477702198,-30098.43440037184,-21914.23140933888,-18049.14540638273,-34516.3460989411,-187500.02235174447
1741818509.654228,-13975.00353753609,-4640.646832066397,-16775.78887650834,-30383.53090089928,-22201.5407325674,-18322.5742963045,-34802.426076224576,-187500.02235174447
1741818509.6542685,-13858.483893690574,-4526.98821151116,-16666.26532867734,-30264.977248308332,-22089.916120757596,-18214.03422522953,-34688.543938224786,-187500.02235174447
1741818509.654318,-13506.130994097113,-4178.144535797183,-16315.320588984561,-29907.215226556687,-21739.217250253827,-17874.511226953415,-34332.03361416264,-187500.02235174447
1741818509.654358,-13623.052969342825,-4296.049987798928,-16428.39806418396,-30033.90491412937,-21849.433702162947,-17994.182466767128,-34449.7826039532,-187500.02235174447
1741818509.6543975,-13957.85974953887,-4626.788750504106,-16764.4565420695,-30375.797197317745,-22181.24534860198,-18323.982456205184,-34787.964497561996,-187500.02235174447
1741818509.6544416,-13945.43217962172,-4615.836395721006,-16752.99009716393,-30361.805005288723,-22170.807083941352,-18310.86198220992,-34775.60398287821,-187500.02235174447
1741818509.654482,-13601.148259776624,-4272.625359609766,-16409.28732267467,-30004.780591104103,-21831.999341487808,-17968.477960643526,-34425.59801645255,-187500.02235174447
1741818509.6545222,-13620.46016698601,-4289.2550574845145,-16429.403892684448,-30026.70765241476,-21848.293763195725,-17981.821952083345,-34444.06055737264,-187500.02235174447
1741818509.654562,-13929.741255014093,-4598.491442023688,-16737.567393489768,-30343.990664957844,-22155.76435992293,-18285.38099353087,-34756.560296602285,-187500.02235174447
1741818509.6546018,-13967.96273803267,-4636.4000006198885,-16776.481780586455,-30378.859386308122,-22198.657357532666,-18324.96593296122,-34796.56991917729,-187500.02235174447
1741818509.6546552,-13639.637963728663,-4309.841014127853,-16446.525328937212,-30039.537553732105,-21873.886510597054,-18002.832591871334,-34465.07119716063,-187500.02235174447
1741818509.654699,-13554.96955573196,-4224.479702053035,-16356.38074354896,-29954.511517824118,-21786.15591360997,-17916.30898908484,-34375.95479201732,-187500.02235174447
1741818509.6547394,-13885.149524825756,-4552.849179845951,-16687.857113821163,-30297.633146957538,-22112.893714057653,-18247.18186225675,-34712.1920838585,-187500.02235174447
1741818509.6547794,-13998.696386658716,-4665.97135853426,-16804.242647199946,-30411.962319846432,-22228.74280556951,-18362.53921539059,-34827.75060269244,-187500.02235174447
1741818509.6548195,-13704.770947071427,-4371.777698013509,-16515.100480926096,-30108.269167932176,-21939.24301138437,-18071.251281649027,-34533.37812821605,-187500.02235174447
1741818509.6548593,-13527.834537963217,-4195.2212685610375,-16335.191289805329,-29930.68455823476,-21761.367829009036,-17893.845485907255,-34351.77020451667,-187500.02235174447
1741818509.6549,-13829.40427415422,-4492.968856450183,-16636.91748820752,-30238.088099728597,-22059.405989576102,-18186.586283038414,-34655.08337677519,-187500.02235174447
1741818509.65494,-14016.980113623156,-4679.874143585461,-16823.576906153787,-30425.06044209724,-22248.054712778892,-18369.378849193912,-34843.55328602234,-187500.02235174447
1741818509.65499,-13780.051622396903,-4446.454876238689,-16589.71060391791,-30180.107674611532,-22014.031948331827,-18141.92749761671,-34605.50720757332,-187500.02235174447
1741818509.65503,-13540.083293924725,-4207.40296928918,-16346.434217266347,-29937.50184029363,-21770.263823302248,-17905.91542791312,-34361.157937187905,-187500.02235174447
1741818509.655074,-13774.351927560798,-4438.318841256958,-16579.27233925728,-30181.24761357875,-22002.476096448434,-18133.612648679336,-34596.678268513475,-187500.02235174447
1741818509.6550813,-14015.080215344457,-4676.297864472612,-16820.76058635242,-30427.005043864854,-22245.752483099997,-18367.411895681846,-34840.04406214286,-187500.02235174447
1741818509.655089,-13846.995097040546,-4507.475138601678,-16651.133197681094,-30248.302846944673,-22079.611966563698,-18201.27137914555,-34669.321437993225,-187500.02235174447
1741818509.6551073,-13536.90934621207,-4195.891820894697,-16337.538222973137,-29929.566971011995,-21771.046134358185,-17894.627796963192,-34353.51364058419,-187500.02235174447
1741818509.6551156,-13723.94874381408,-4385.278151664514,-16524.46586185287,-30129.212752486797,-21959.896023261073,-18082.516560854503,-34544.375186488054,-187500.02235174447
1741818509.6551473,-14021.58457298095,-4688.412509967388,-16822.012284041917,-30435.16343059104,-22256.570727416365,-18386.142657535394,-34844.00032091145,-187500.02235174447
1741818509.655157,-13913.491536795085,-4582.644055204875,-16715.3944629901,-30319.42609780146,-22149.43881624208,-18278.206083560715,-34735.7508225144,-187500.02235174447
1741818509.6551657,-13574.035593752336,-4241.109399927784,-16376.273796114183,-29967.54258484156,-21812.26275113377,-17935.665599783137,-34390.77399859119,-187500.02235174447
1741818509.6551735,-13664.046068673859,-4330.069342859905,-16461.858625633555,-30059.497661530695,-21896.52882773028,-18020.04343510192,-34478.14696766698,-187500.02235174447
1741818509.6551814,-13980.367956205364,-4645.921843757849,-16777.80053350932,-30385.810778833722,-22210.615540816252,-18333.951334232253,-34800.30266050132,-187500.02235174447
1741818509.6551895,-13956.362182660365,-4620.6643725233525,-16757.147521632614,-30359.43572037646,-22191.325985351323,-18313.253618866638,-34778.375599190666,-187500.02235174447
1741818509.655212,-13618.001475095925,-4282.571885892378,-16420.19497396886,-30012.17901851881,-21856.56390864419,-17979.22914972653,-34436.48331600229,-187500.02235174447
1741818509.655234,-13634.832338670773,-4296.161746521205,-16429.11332000653,-30029.61337919395,-21867.225690749372,-17985.04060328491,-34448.91088591944,-187500.02235174447
1741818509.6552415,-13952.0929994694,-4612.550689286076,-16748.4526930395,-30352.797252273234,-22185.693345748587,-18298.009729148118,-34769.457253153,-187500.02235174447
1741818509.6552515,-13990.135668532334,-4648.849922281494,-16792.84325752774,-30392.024563792296,-22227.044072990906,-18338.756959290142,-34811.299718773334,-187500.02235174447
1741818509.6552591,-13660.715658750018,-4316.7253514200875,-16470.53110248221,-30054.736739961714,-21905.938912145964,-18014.343740265816,-34482.46085434686,-187500.02235174447
1741818509.6552668,-13573.856779796693,-4230.782893989432,-16388.9695869648,-29978.629050091393,-21824.444451861913,-17931.239954380984,-34400.85463534053,-187500.02235174447
1741818509.6552756,-13902.203905845156,-4572.09403182197,-16712.086404810718,-30317.9061791785,-22144.700246417553,-18266.22554853267,-34730.431107334036,-187500.02235174447
1741818509.6552835,-14020.623447969372,-4697.68848391634,-16820.84999333024,-30432.6823869565,-22252.97209655906,-18390.76946863764,-34843.03919589987,-187500.02235174447
1741818509.6553118,-13726.608601404263,-4403.003085017573,-16529.74087354432,-30131.29146472114,-21959.784264538797,-18100.71088084112,-34549.292570268226,-187500.02235174447
1741818509.6553192,-13546.475892838944,-4221.730437485032,-16350.591641735035,-29953.326875367988,-21779.852721673575,-17920.48876529798,-34370.07628322557,-187500.02235174447
1741818509.6553264,-13845.989268540057,-4521.757903308619,-16652.00491571485,-30264.306695974672,-22078.02499270737,-18213.698949062702,-34676.04931307427,-187500.02235174447
1741818509.6553512,-14035.263840587599,-4713.759388179707,-16843.17938604109,-30456.039959912297,-22269.758256644996,-18403.331149021524,-34867.313190378336,-187500.02235174447
1741818509.655372,-13804.280913386454,-4485.3692633353785,-16614.744557707854,-30216.429259351407,-22040.69757946701,-18180.663070757757,-34637.090222488674,-187500.02235174447
1741818509.6553946,-13549.649840551596,-4230.335859100325,-16358.995897650231,-29958.803052759537,-21785.30654732067,-17930.390588091683,-34379.821643808085,-187500.02235174447
1741818509.6554153,-13772.809657193382,-4453.07099259746,-16577.48419970086,-30189.473055538307,-22005.582988927723,-18147.806006408457,-34603.94258546145,-187500.02235174447
1741818510.1301692,-14023.551526493016,-4700.393044995433,-16829.67893239009,-30443.88061092861,-22255.766064615975,-18387.796686625086,-34857.36666409572,-187500.02235174447
1741818510.1310537,-13870.307966507431,-4545.093124519959,-16680.995128273385,-30283.015106083767,-22107.641054110652,-18235.98363828464,-34703.5419587543,-187500.02235174447
1741818510.1310935,-13554.231948164934,-4232.436923079124,-16364.539130275147,-29960.770006271603,-21789.93335842292,-17928.848317724267,-34383.48732989876,-187500.02235174447
1741818510.1311312,-13719.925429812125,-4398.510384382055,-16528.667989810467,-30137.34878746853,-21953.414017369036,-18094.273578437995,-34551.41598599148,-187500.02235174447
1741818510.1311672,-14002.183258793744,-4681.662283141885,-16811.305798447826,-30426.222732808917,-22235.67184635065,-18372.284575973103,-34836.51248651892,-187500.02235174447
1741818510.131204,-13914.22914436211,-4591.33888379799,-16729.58782071922,-30337.73217651036,-22153.886813388686,-18290.410136033315,-34752.06759596677,-187500.02235174447
1741818510.1312497,-13575.421401908567,-4250.720650043565,-16394.49046784526,-29987.949727529256,-21820.21997215986,-17956.475073871028,-34410.86821685651,-187500.02235174447
1741818510.1312857,-13641.739027707461,-4317.775883409487,-16456.650669175466,-30062.939830176812,-21881.463751967403,-18024.178507826153,-34479.19749965638,-187500.02235174447
1741818510.131322,-13960.944290273703,-4636.288241897612,-16774.894806730128,-30394.326793471195,-22198.232674388015,-18342.310886658535,-34802.53783494685,-187500.02235174447
1741818510.131358,-13958.150322216788,-4636.668221553352,-16776.995870708928,-30388.0236015348,-22202.077174434326,-18339.76278779063,-34801.53200644637,-187500.02235174447
1741818510.131393,-13610.290123258845,-4288.9644848065955,-16432.644895630467,-30029.903951871867,-21860.095484268128,-17996.37293772375,-34450.81078419814,-187500.02235174447
1741818510.1314287,-13594.018053295382,-4272.89358054323,-16414.42822389939,-30017.878713354912,-21837.073187479164,-17975.876388058234,-34434.89634214596,-187500.02235174447
1741818510.1314662,-13927.126100912823,-4608.505023539666,-16747.6033267502,-30359.636886076558,-22163.453360015556,-18304.223514106692,-34773.43586366605,-187500.02235174447
1741818510.131502,-14001.713872160182,-4684.433899454343,-16822.70518812003,-30433.196477078975,-22242.913811554172,-18382.074640044528,-34848.09069014677,-187500.02235174447
1741818510.1315513,-13666.102429163746,-4348.956566924639,-16492.21229460386,-30088.57728106705,-21912.19740059345,-18051.917022695186,-34512.702764594884,-187500.02235174447
1741818510.1315873,-13536.596421789698,-4216.902460682686,-16362.594528507536,-29960.658247549327,-21782.758448452765,-17919.371178075216,-34382.01211476471,-187500.02235174447
1741818510.1316228,-13845.095198761845,-4525.647106843842,-16668.433447889503,-30280.265841515764,-22083.99290847694,-18225.254800946095,-34693.930708638516,-187500.02235174447
1741818510.1316588,-13981.329081216942,-4663.11033524398,-16807.885981546162,-30420.187761805984,-22222.73018631103,-18364.282651458103,-34833.115021361715,-187500.02235174447
1741818510.1316943,-13695.1820487001,-4376.605674815854,-16523.16946067446,-30122.48487740575,-21940.91939221852,-18079.655537564224,-34544.7551661438,-187500.02235174447
1741818510.1317298,-13496.787964914796,-4175.842306118287,-16320.506193698193,-29914.658357460306,-21745.49809044577,-17873.05836356382,-34338.448564821316,-187500.02235174447
1741818510.1317654,-13771.781476948438,-4451.215797807669,-16591.722260918887,-30200.693631254868,-22009.58395118522,-18146.911936630244,-34615.00669896683,-187500.02235174447
1741818510.131801,-13975.964662547669,-4654.236692695224,-16794.51963836189,-30412.766982646823,-22211.755479783475,-18354.000849008662,-34823.3696607792,-187500.02235174447
1741818510.1318457,-13768.58517749133,-4450.92522512975,-16593.197476052937,-30201.610052777538,-22011.50620120838,-18156.232614068107,-34619.63351006908,-187500.02235174447
1741818510.1318996,-13511.540116255299,-4195.847117405787,-16335.28069678315,-29939.647607761337,-21758.663267929944,-17904.21669533452,-34357.69341679733,-187500.02235174447
1741818510.131936,-13723.457005436065,-4408.903945553773,-16546.012943507783,-30162.33803776956,-21968.367334409635,-18117.54174441597,-34571.867832168085,-187500.02235174447
1741818510.1319716,-14003.949046605712,-4687.4066814668995,-16825.47680443249,-30442.964189405942,-22247.182994745137,-18388.668404658845,-34852.04694891536,-187500.02235174447
1741818510.1320074,-13838.680248103172,-4521.690848075253,-16662.5325873533,-30269.380541966028,-22083.23294916546,-18222.21496370017,-34687.20283355747,-187500.02235174447
1741818510.1320944,-13534.920040955549,-4217.908289183175,-16358.727676716768,-29959.94299172676,-21784.7924571982,-17923.729768244,-34378.972277518784,-187500.02235174447
1741818510.132134,-13666.124780908202,-4350.856465203341,-16489.798306202687,-30101.742458551224,-21912.175048848992,-18050.397104072228,-34513.64153786201,-187500.02235174447
1741818510.1321697,-13961.033697251523,-4645.430105379833,-16781.60033006672,-30400.272357496306,-22197.5397703099,-18339.919250001818,-34810.45035248403,-187500.02235174447
1741818510.1322143,-13885.104821336845,-4568.383642242389,-16709.091271053705,-30319.33669082364,-22125.5224496749,-18266.449065977224,-34735.77317425885,-187500.02235174447
1741818510.1322503,-13542.296116625801,-4226.625469520744,-16368.115409387996,-29966.804977274536,-21788.100515377584,-17933.58688754879,-34390.170501490895,-187500.02235174447
1741818510.132286,-13608.211411024502,-4288.383339450757,-16427.280476961194,-30033.681396684817,-21848.18200447345,-17992.528437677436,-34452.06248188764,-187500.02235174447
1741818510.132322,-13945.186310432711,-4622.63132603542,-16760.54498678982,-30371.86329029361,-22182.49704629148,-18314.550020045044,-34787.42805569507,-187500.02235174447
1741818510.1323583,-13949.924880257235,-4628.800407505084,-16773.218425895982,-30381.988630531865,-22195.751630753475,-18327.134052173384,-34800.14619829014,-187500.02235174447
1741818510.132394,-13617.93441986256,-4299.492156445045,-16440.311543978638,-30038.46466999825,-21868.85736809461,-17998.94338833611,-34462.34428433708,-187500.02235174447
1741818510.1324296,-13565.474875625954,-4251.45825761059,-16380.297110116138,-29990.74369558617,-21803.88084696303,-17946.37208537723,-34407.649565654945,-187500.02235174447
1741818510.132465,-13875.538274709974,-4561.812229372529,-16693.57916040172,-30311.13360060854,-22116.447641426046,-18254.26736524908,-34723.47971480843,-187500.02235174447
1741818510.1325097,-13967.359240932376,-4652.649718838897,-16787.50119060292,-30401.97109007491,-22215.667035063154,-18344.38959889288,-34816.10534383122,-187500.02235174447
1741818510.1325455,-13657.541711037364,-4344.866197689319,-16482.332823554614,-30084.576318809548,-21913.493801771856,-18043.37865631326,-34504.72319182434,-187500.02235174447
1741818510.1325843,-13517.15040411358,-4207.917059411652,-16343.908470142898,-29955.047959691045,-21776.835236172108,-17916.577210018302,-34367.39407389094,-187500.02235174447
1741818510.13262,-13816.082634458857,-4506.603420567921,-16643.265383632825,-30268.441768698904,-22073.152312416114,-18209.787393783023,-34670.90841184955,-187500.02235174447
1741818510.1326556,-13980.926749816746,-4670.665224869875,-16810.90346704763,-30433.26353231234,-22236.2976951954,-18365.333183447503,-34836.15485860764,-187500.02235174447
1741818510.132692,-13726.027456048425,-4416.235317735114,-16558.686382613945,-30168.68593319487,-21987.3886689411,-18116.982950804588,-34580.22738459437,-187500.02235174447
1741818510.132728,-13518.044473891792,-4210.487510024012,-16343.774359676167,-29956.299657380543,-21773.907157648464,-17905.557800001836,-34367.05879772411,-187500.02235174447
1741818510.1327648,-13770.172151347657,-4466.593797992921,-16592.973958608385,-30215.065802939633,-22022.41385250257,-18151.047009354475,-34622.02514672579,-187500.02235174447
1741818510.1328094,-13992.706119144694,-4694.246315270223,-16819.531240407377,-30447.59100050819,-22251.094550024816,-18387.372003480436,-34849.70001574755,-187500.02235174447
1741818510.1328447,-13803.990340708535,-4508.1456909353365,-16634.704665506444,-30253.443748169393,-22071.09595192623,-18206.479335603635,-34661.00658905585,-187500.02235174447
1741818510.1328807,-13549.046343451304,-4249.290138398425,-16376.162037391907,-29989.08966649648,-21818.901219237,-17938.437216095594,-34398.30653647263,-187500.02235174447
1741818510.1329155,-13754.347116273299,-4454.590911220421,-16576.970109578386,-30205.432201079395,-22014.523686709847,-18134.05968356844,-34605.23898663986,-187500.02235174447
1741818510.1329515,-14036.761407466103,-4739.262728603212,-16856.43397050309,-30489.83579752872,-22292.579387733866,-18415.06581486056,-34889.039085988894,-187500.02235174447
1741818510.132987,-13897.219466831622,-4596.613895489442,-16720.825936892743,-30345.15295566952,-22159.72061869152,-18285.53745574206,-34750.65943606609,-187500.02235174447
1741818510.1330223,-13569.565244861275,-4271.79834506492,-16395.026909712185,-30012.201370263265,-21838.61545784658,-17964.588757108304,-34420.77003965021,-187500.02235174447
1741818510.1330614,-13687.068365462825,-4395.247029691581,-16509.78076574573,-30137.661711890905,-21956.8338342707,-18079.901406753233,-34538.98841607433,-187500.02235174447
1741818510.133106,-13973.729488102137,-4684.1209750319695,-16800.532257620365,-30435.677520713514,-22247.942954056616,-18372.619852139935,-34831.25982657192,-187500.02235174447
1741818510.1331446,-13933.80927250496,-4645.363050146467,-16767.250510126414,-30394.81853184921,-22216.53875309691,-18342.221479680717,-34795.09470404324,-187500.02235174447
1741818510.1331809,-13586.172590991568,-4295.267676742992,-16423.078349003597,-30034.351949018474,-21878.133342043562,-17991.902588832687,-34444.23937132828,-187500.02235174447
1741818510.133216,-13629.199699068035,-4340.552311009445,-16455.06369531914,-30081.737647263726,-21912.085641871174,-18032.53806025244,-34484.83013925912,-187500.02235174447
1741818510.1332512,-13946.929746500224,-4661.009271265182,-16767.4069723376,-30411.06825006822,-22216.58345658582,-18350.513976873634,-34806.60585243772,-187500.02235174447
1741818510.1332867,-13959.245557695098,-4669.525285902654,-16783.16495217859,-30420.8806658841,-22234.196631216604,-18363.4332851688,-34821.648576456144,-187500.02235174447
1741818510.1333225,-13626.897469389138,-4339.300613319947,-16451.68858190639,-30075.85913847198,-21910.163391848015,-18035.980228898552,-34485.05365670367,-187500.02235174447
1741818510.1333573,-13561.988003490926,-4276.0451765114285,-16386.823819497087,-30017.297567999074,-21844.538670127236,-17972.858902556767,-34421.50764721724,-187500.02235174447
1741818510.133402,-13873.683079920183,-4588.299046552068,-16702.296340739293,-30340.0120544448,-22155.451435500556,-18280.530664984068,-34739.21534290497,-187500.02235174447
1741818510.1334376,-13972.678956112739,-4687.093757044525,-16804.533219877867,-30437.867991670133,-22259.11882628427,-18379.88416908791,-34839.5746755093,-187500.02235174447
1741818510.1334753,-13666.057725674837,-4382.037148718494,-16503.991663931807,-30123.691871606337,-21959.940726749985,-18084.10353471083,-34534.20514276089,-187500.02235174447
1741818510.133511,-13510.10960461016,-4228.3242020993475,-16347.484749255747,-29971.61060233243,-21803.07618416264,-17933.139852659686,-34377.117082729,-187500.02235174447
1741818510.13355,-13806.11375643179,-4520.729723063675,-16638.7279795084,-30277.561280436672,-22091.525446358377,-18222.639646844822,-34676.026961329815,-187500.02235174447
1741818510.1335864,-13961.883063540825,-4675.247332483213,-16793.625568583677,-30433.241180567886,-22245.59602088881,-18375.6373376414,-34832.824448683794,-187500.02235174447
1741818510.133622,-13724.373426958731,-4444.778495404541,-16560.318059959183,-30187.707267726335,-22010.768593641355,-18145.12379707382,-34595.27010861279,-187500.02235174447
1741818510.1336572,-13503.471136506932,-4227.743056743509,-16336.487690983737,-29965.620334818406,-21789.799247956187,-17927.68602701259,-34370.4115593924,-187500.02235174447
1741818510.133702,-13763.243110566511,-4488.677321514764,-16594.918560375998,-30234.75768980476,-22047.917192926074,-18184.6416812708,-34632.64222534207,-187500.02235174447
1741818510.133738,-13980.837342838926,-4706.807995654106,-16813.18334498207,-30455.615276767647,-22265.69023915413,-18401.095974575994,-34852.60574252674,-187500.02235174447
1741818510.1337736,-13791.87569521376,-4521.84731028644,-16628.155604381038,-30263.859661085567,-22079.142579930136,-18221.253838688594,-34667.980333325904,-187500.02235174447
1741818510.1338093,-13495.022177102826,-4225.55258578689,-16333.179632804351,-29965.46387260722,-21784.32307056464,-17929.11653865773,-34369.51748961419,-187500.02235174447
1741818510.133845,-13677.010080457936,-4408.076931008927,-16519.369664117057,-30162.807424403123,-21960.67833431701,-18112.981988547086,-34560.02140760677,-187500.02235174447
1741818510.133888,-13941.028885964024,-4670.061727769581,-16794.631397084166,-30443.053596383765,-22223.490145622513,-18382.320509233537,-34839.820544698305,-187500.02235174447
1741818510.1339245,-13843.240003972054,-4565.701432907753,-16692.97566330143,-30327.226856616362,-22130.551592177344,-18278.250787049627,-34732.95685445748,-187500.02235174447
1741818510.1339598,-13536.216442133957,-4261.9635775045845,-16375.37972633597,-29998.477399167707,-21823.773899528256,-17969.506140888472,-34408.543635433154,-187500.02235174447
1741818510.1340055,-13634.832338670773,-4360.3336048523915,-16469.480570492815,-30098.9037870054,-21916.824211695697,-18061.10358966632,-34503.51619762376,-187500.02235174447
1741818510.134045,-13922.23106887711,-4644.781904790629,-16759.472103055967,-30395.846712094157,-22200.512552322456,-18343.11554945893,-34797.30752674431,-187500.02235174447
1741818510.1340802,-13894.55960924144,-4614.718808498241,-16739.46729176847,-30368.91286002551,-22175.25508108796,-18315.53349680108,-34776.36394218969,-187500.02235174447
1741818510.1341157,-13569.721707072462,-4288.7856708509535,-16412.953008765344,-30030.59685594998,-21855.021638276772,-17991.634367899223,-34444.17231609492,-187500.02235174447
1741818510.1341548,-13585.993777035927,-4304.096615802839,-16428.19689848386,-30053.172117849845,-21871.159597773505,-18005.112469805776,-34461.405511069956,-187500.02235174447
1741818510.1341906,-13889.150487083256,-4606.4039595608665,-16731.42066376456,-30365.761264057313,-22172.461113031044,-18305.38580481837,-34769.97134327547,-187500.02235174447
1741818510.134226,-13943.845205765392,-4661.053974754092,-16788.909350503607,-30420.07600308371,-22230.508593381477,-18363.38858167989,-34827.77295443689,-187500.02235174447
1741818510.1342614,-13607.205582524013,-4326.2918980469585,-16456.069523819628,-30074.62979252694,-21896.90880738602,-18036.00258064301,-34491.80388352917,-187500.02235174447
1741818510.1343615,-13524.526479783832,-4240.841178994319,-16370.775266978178,-29990.36371593043,-21814.31911162366,-17946.014457465943,-34405.39203946496,-187500.02235174447
1741818510.1343975,-13834.589878867851,-4548.803514099541,-16680.078706750715,-30307.71378370688,-22121.409728695122,-18250.892251836332,-34717.86942695015,-187500.02235174447
1741818510.1344333,-13956.33983091591,-4671.201666736802,-16805.60610361172,-30432.43651776749,-22242.93616329863,-18377.559587664557,-34842.770974966406,-187500.02235174447
1741818510.13447,-13686.286054406888,-4402.645457106288,-16541.47553938336,-30155.453700477326,-21978.35856418116,-18115.798308348454,-34573.36539904659,-187500.02235174447
1741818510.1345055,-13512.14361335559,-4230.73819050052,-16364.293261086139,-29982.965288515723,-21802.36092834007,-17944.762759776444,-34399.20060625084,-187500.02235174447
1741818510.134541,-13792.456840569597,-4509.620906069387,-16644.405322600047,-30271.638068156015,-22080.75190553092,-18218.9516090097,-34682.91129862205,-187500.02235174447
1741818510.13458,-13966.91220604327,-4682.0646145420815,-16822.884002075672,-30450.16145112055,-22255.050808793403,-18390.456544215267,-34861.32292286431,-187500.02235174447
1741818510.134616,-13728.57555491633,-4446.633690194331,-16591.43168824097,-30206.527436557706,-22023.77730891434,-18157.238442568596,-34627.1213444616,-187500.02235174447
1741818510.1346605,-13484.159229297547,-4203.446710520591,-16342.813234664589,-29956.903154480835,-21781.149122851984,-17913.515021027928,-34377.20648970681,-187500.02235174447
1741818510.134696,-13730.453101450576,-4448.980623362139,-16588.548313206233,-30212.56240756064,-22024.60432345919,-18157.21609082414,-34625.10968746062,-187500.02235174447
1741818510.1347313,-13980.569121905462,-4700.6165624399855,-16842.41942672961,-30471.440311842005,-22274.31801251388,-18410.193134569305,-34881.707713807555,-187500.02235174447
1741818510.1347673,-13798.11183191679,-4519.165100951803,-16665.594776343678,-30284.624431684548,-22096.17460920508,-18235.693065606723,-34702.2902610648,-187500.02235174447
1741818510.1348033,-13493.94929336897,-4212.49916702499,-16361.164016862396,-29975.49980586765,-21794.202541613882,-17932.7822247484,-34394.32792595958,-187500.02235174447
1741818510.1348393,-13660.447437816554,-4377.835020760896,-16527.595106076613,-30150.804537630625,-21961.30418316176,-18091.546665614445,-34563.79885241972,-187500.02235174447
1741818510.134876,-13947.868519767348,-4666.284282956634,-16815.597333383244,-30444.886439429098,-22247.83119533434,-18377.20195975327,-34854.997379183456,-187500.02235174447
1741818510.1349115,-13846.056323773424,-4569.4788777206995,-16717.40611999108,-30342.29193237924,-22147.53891796338,-18288.465534265702,-34756.761462302384,-187500.02235174447
1741818510.1349568,-13494.016348602338,-4217.908289183175,-16367.646022754434,-29983.12175072691,-21801.668024261955,-17943.622820809225,-34401.99457430775,-187500.02235174447
1741818510.1349924,-13566.324241915256,-4286.595199894333,-16437.942259066374,-30061.62107725395,-21868.723257627877,-18009.113432063274,-34474.25776413176,-187500.02235174447
1741818510.1350281,-13870.88911186327,-4587.494383751677,-16743.93764065953,-30373.316153683205,-22170.71767696353,-18304.312921084515,-34783.24827948192,-187500.02235174447
1741818510.1350672,-13838.97082078109,-4559.465296204722,-16719.64129443661,-30342.023711445778,-22143.694417917064,-18278.071973093985,-34758.21432569198,-187500.02235174447
1741818510.1351025,-13469.362374468134,-4194.841288905298,-16351.910394657898,-29962.088759194467,-21778.22104432834,-17920.153489131153,-34384.89548979944,-187500.02235174447
1741818510.135138,-13470.94934832446,-4196.07063485034,-16351.105731857508,-29969.040151720066,-21780.120942607038,-17919.907619942143,-34385.85661481102,-187500.02235174447
1741818510.1351733,-13813.422776868676,-4535.9065575488285,-16696.328424969724,-30321.884789691543,-22122.124984517694,-18255.18378677175,-34734.320310869254,-187500.02235174447
1741818510.135212,-13873.83954213137,-4595.608066988953,-16758.421571066567,-30383.10621775463,-22180.328927079314,-18314.10298515594,-34798.35805873371,-187500.02235174447
1741818510.1352568,-13537.311677612268,-4259.035498980939,-16421.49137514727,-30033.055547840067,-21845.633905605544,-17978.200969481586,-34457.60571451255,-187500.02235174447
1741818510.135293,-13440.41686539851,-4162.721832123021,-16322.607257676991,-29939.893476950347,-21747.956782335852,-17882.311985768316,-34359.74977728722,-187500.02235174447
1741818510.1353285,-13775.87184618376,-4499.003827453116,-16658.308107651246,-30287.53015846374,-22081.713030542498,-18220.896210777308,-34700.368011041646,-187500.02235174447
1741818510.1353643,-13917.716016497137,-4638.702230298785,-16802.298045432337,-30427.206209564953,-22224.764195056465,-18358.180625221805,-34842.65921624413,-187500.02235174447
1741818510.1353996,-13629.55732697932,-4348.107200635338,-16517.313303627172,-30126.932874552356,-21940.67352302951,-18068.47966533657,-34552.421814491965,-187500.02235174447
1741818510.1354349,-13443.590813111165,-4162.118335022728,-16327.435234479337,-29939.692311250248,-21751.555413193157,-17885.083602080776,-34361.60497207701,-187500.02235174447
1741818510.1354704,-13721.825328090827,-4439.771704646552,-16608.061386115718,-30229.013291479743,-22023.866715892163,-18157.97605013562,-34645.09214700367,-187500.02235174447
1741818510.1355057,-13913.782109473004,-4633.315459885056,-16803.773260566388,-30428.234389809895,-22215.53292459642,-18349.418741395326,-34843.955617422536,-187500.02235174447
1741818510.135554,-13686.889551507182,-4409.887422309807,-16578.311214245703,-30192.423485806405,-21996.150552767584,-18129.030541065997,-34616.50426584533,-187500.02235174447
1741818510.13559,-13434.270135673301,-4157.782096598398,-16323.791900133123,-29935.154907125823,-21746.12393929052,-17877.752229899434,-34359.8615360095,-187500.02235174447
1741818510.6094534,-13657.497007548453,-4376.113936437838,-16540.760283560787,-30161.801595902634,-21966.69095357549,-18090.563188858414,-34580.07092238318,-187500.02235174447
1741818510.6102147,-13909.200001859666,-4623.883023724917,-16796.08426047376,-30418.10904957164,-22220.047976976395,-18338.086406956485,-34836.110155118724,-187500.02235174447
1741818510.610267,-13766.350003045798,-4482.798812723018,-16660.29741290777,-30270.989867566812,-22080.193111919536,-18200.913751234264,-34696.88113890662,-187500.02235174447
1741818510.61031,-13457.38183944009,-4174.389442728691,-16349.205833578806,-29956.1208434249,-21770.30852679116,-17897.757041186935,-34383.68849559886,-187500.02235174447
1741818510.6103625,-13613.59818143823,-4333.0421248724615,-16502.494097053303,-30122.551932639115,-21922.993293165364,-18053.10166515132,-34540.70950039739,-187500.02235174447
1741818510.6104033,-13903.366196556832,-4623.212471391257,-16794.5643418508,-30416.745593159867,-22215.10824145177,-18338.53344184559,-34834.232608584476,-187500.02235174447
1741818510.610443,-13812.528707090463,-4532.486740647166,-16709.22538152044,-30321.61656875808,-22131.04333055536,-18251.696914636723,-34747.68665405353,-187500.02235174447
1741818510.6104832,-13462.388630198078,-4181.743166654488,-16361.275775584672,-29964.65920980683,-21785.395954298492,-17906.094241868763,-34395.624327137986,-187500.02235174447
1741818510.6105232,-13555.327183643245,-4273.586484621344,-16452.806169129155,-30067.164309878866,-21876.255795509314,-17999.815106369868,-34490.552185839675,-187500.02235174447
1741818510.6105635,-13854.304117477432,-4577.436098746789,-16749.056190139796,-30375.931307784478,-22171.81291244184,-18300.647234993845,-34793.77595112038,-187500.02235174447
1741818510.610603,-13852.851254087836,-4580.788860415085,-16751.291364585326,-30375.841900806656,-22171.09765661927,-18304.827011206988,-34795.20646276551,-187500.02235174447
1741818510.610647,-13515.943409912994,-4242.606966806289,-16415.814032055623,-30026.908818114858,-21840.738873569833,-17969.260271699462,-34453.82826969961,-187500.02235174447
1741818510.6106975,-13493.032871846304,-4219.919946184153,-16388.701366031335,-30006.009937049144,-21817.627169803047,-17941.320591130327,-34428.548446720655,-187500.02235174447
1741818510.6107385,-13814.763881535993,-4543.193226241258,-16712.824012377743,-30338.492135821838,-22137.10065330275,-18261.41992347478,-34756.58264834674,-187500.02235174447
1741818510.610778,-13893.620835974318,-4619.613840533953,-16797.60417909672,-30417.88553212709,-22217.81280253086,-18341.43916862478,-34839.66408248712,-187500.02235174447
1741818510.610818,-13580.562303133287,-4303.515470447001,-16485.640881734,-30092.891167746922,-21907.168258091006,-18033.52153700847,-34523.52100891126,-187500.02235174447
1741818510.610924,-13476.447877460467,-4199.132823840717,-16374.217435624294,-29986.36275367293,-21802.472687062345,-17926.791957234378,-34411.65052791245,-187500.02235174447
1741818510.6109643,-13786.466573055575,-4508.928001991272,-16685.197256230982,-30307.020879628766,-22109.809173322818,-18232.22854521615,-34726.13957239861,-187500.02235174447
1741818510.6110046,-13926.120272412334,-4652.023869994148,-16832.271734746904,-30453.17893662202,-22252.41330294768,-18376.39729695288,-34873.23640265899,-187500.02235174447
1741818510.6110451,-13638.453321272531,-4368.760212512042,-16547.242289452828,-30157.666523178403,-21969.619032099134,-18097.91691278421,-34584.94360267444,-187500.02235174447
1741818510.6110957,-13439.791016553763,-4169.092079292784,-16341.38272301945,-29953.908020723826,-21768.74390467929,-17900.372195288204,-34378.212318207305,-187500.02235174447
1741818510.6111543,-13712.996389030981,-4443.526797715044,-16616.018607141807,-30239.630370096016,-22038.261239321382,-18172.54938752048,-34655.95509480895,-187500.02235174447
1741818510.611195,-13931.507042826062,-4661.076326498548,-16839.33488599478,-30465.025361183332,-22260.571689673867,-18387.617872669445,-34879.69605680658,-187500.02235174447
1741818510.6112351,-13713.689293109095,-4443.21387329267,-16625.205174112936,-30235.718814816337,-22048.587745259734,-18174.002250910075,-34660.42544370001,-187500.02235174447
1741818510.6112802,-13419.294466888246,-4151.389497684181,-16327.144661801418,-29938.150040882832,-21753.812939383144,-17886.558817214827,-34361.47086161028,-187500.02235174447
1741818510.61132,-13631.144300835645,-4365.921540966218,-16536.17817594745,-30163.097997081044,-21964.72400006342,-18098.453354651137,-34576.673457225974,-187500.02235174447
1741818510.61136,-13928.221336391132,-4662.797410821607,-16836.42915921559,-30467.305239117773,-22264.438541464635,-18391.618834926943,-34877.4832341055,-187500.02235174447
1741818510.6114,-13779.112849129779,-4514.091254960448,-16692.841552834696,-30311.223007586363,-22120.42625193909,-18244.499652922113,-34728.933540455524,-187500.02235174447
1741818510.6114504,-13422.982504723372,-4157.647986131667,-16332.576135704057,-29942.97801768518,-21764.921756377433,-17890.604482961236,-34364.33188490056,-187500.02235174447
1741818510.61149,-13559.506959856388,-4291.400824952224,-16469.34646002608,-30089.963089223278,-21899.23338880937,-18025.27374330446,-34503.896177279494,-187500.02235174447
1741818510.61153,-13882.199094557654,-4613.489462553199,-16795.033728484363,-30420.50068622836,-22219.4444798761,-18342.44499712527,-34831.59510273875,-187500.02235174447
1741818510.61157,-13820.083596716357,-4550.479894933688,-16736.874489411653,-30352.819604017688,-22159.497101246965,-18281.916473140296,-34772.094758998726,-187500.02235174447
1741818510.6116097,-13441.04271424326,-4172.668358405633,-16356.917185415887,-29963.720436539705,-21785.060678131664,-17910.810459948832,-34388.44941716784,-187500.02235174447
1741818510.6116493,-13493.681072435507,-4228.815940477364,-16408.01327324072,-30026.908818114858,-21831.641713576522,-17966.712172831558,-34443.59117073908,-187500.02235174447
1741818510.6116886,-13841.02718127098,-4578.084299335993,-16757.013411165884,-30383.888528810567,-22180.373630568225,-18308.38093857538,-34796.32404998828,-187500.02235174447
1741818510.6117296,-13871.850236874849,-4609.354389828967,-16790.98806273795,-30412.990500091375,-22216.20347693008,-18337.34879938946,-34829.65050097114,-187500.02235174447
1741818510.6117797,-13494.463383491444,-4233.621565535255,-16415.00936925523,-30024.40542273586,-21841.163556714484,-17965.37106816424,-34448.821478941616,-187500.02235174447
1741818510.6118238,-13448.888176547072,-4188.359283013258,-16367.042525654142,-29983.233509449186,-21797.756468982276,-17920.824041464813,-34400.49700742924,-187500.02235174447
1741818510.6118636,-13787.762974233983,-4530.005697012627,-16708.867753609153,-30337.73217651036,-22134.75372013494,-18261.75519964161,-34746.61377031967,-187500.02235174447
1741818510.6119034,-13889.195190572167,-4630.230919150224,-16815.530278149876,-30439.969055648933,-22239.136366741226,-18361.309869445548,-34852.225762871,-187500.02235174447
1741818510.6119432,-13555.058962709782,-4293.904220331218,-16481.706974709865,-30090.276013645653,-21905.80480167923,-18028.492394506025,-34514.06622100666,-187500.02235174447
1741818510.6119826,-13407.023359182282,-4143.946366780564,-16328.32930425755,-29942.2180583737,-21752.62829692701,-17878.847465377745,-34362.72255929978,-187500.02235174447
1741818510.6120224,-13720.260705978955,-4457.653100210798,-16641.52194756531,-30267.257126242774,-22061.21648087698,-18189.17908539523,-34681.01140034335,-187500.02235174447
1741818510.612066,-13915.637304262795,-4654.348451417501,-16841.503005206945,-30467.573460051237,-22259.230585006546,-18385.58386392401,-34880.90305100716,-187500.02235174447
1741818510.6121156,-13634.27354505939,-4375.622198059821,-16563.84963558312,-30175.950250142843,-21982.91832005004,-18113.272561225007,-34598.30994585871,-187500.02235174447
1741818510.6121552,-13380.335376302646,-4123.6062793262345,-16307.720995869757,-29921.810915686005,-21728.44370942637,-17863.000078558933,-34341.80132648961,-187500.02235174447
1741818510.612196,-13650.858539445228,-4392.3860064013015,-16577.685365400954,-30206.080401668598,-21997.40225045708,-18131.757453889546,-34617.420687368,-187500.02235174447
1741818510.612236,-13900.885152922292,-4641.697364055796,-16831.71294113552,-30461.65024777058,-22247.942954056616,-18379.750058621175,-34872.543498580875,-187500.02235174447
1741818510.6122756,-13686.353109640255,-4425.287774239513,-16622.120633378105,-30237.194029950388,-22037.143652098617,-18166.089733372897,-34659.19609775497,-187500.02235174447
1741818510.6123152,-13381.721184458875,-4115.6714100446,-16314.962961073275,-29922.749688953125,-21736.378578708005,-17856.853348833723,-34348.283332381645,-187500.02235174447
1741818510.6123593,-13597.661387641596,-4330.561081237922,-16525.69520779791,-30145.10484279452,-21946.753197521353,-18066.44565659114,-34563.66474195298,-187500.02235174447
1741818510.6123989,-13900.996911644568,-4635.952965730782,-16830.774167868396,-30455.011779667355,-22248.613506390277,-18367.322488704027,-34871.917649736126,-187500.02235174447
1741818510.6124485,-13759.130389586735,-4496.455728585212,-16693.95914005746,-30307.110286606585,-22111.28438845687,-18229.076949247952,-34731.30282536779,-187500.02235174447
1741818510.612488,-13385.498629271822,-4127.048447972351,-16318.606295419491,-29924.82840118747,-21740.223078754316,-17867.62688966118,-34351.97137021677,-187500.02235174447
1741818510.612528,-13508.097947609182,-4248.217254664571,-16440.06567478963,-30059.00592315268,-21859.290821467737,-17990.092097531808,-34477.65522928897,-187500.02235174447
1741818510.612568,-13854.192358755156,-4594.7810524441065,-16788.99875748143,-30414.35395650315,-22202.63596804571,-18331.447938853256,-34829.31522480431,-187500.02235174447
1741818510.6126077,-13810.472346600574,-4552.983290312683,-16749.972611662462,-30369.494005381348,-22157.01605761243,-18288.510237754614,-34789.73028537396,-187500.02235174447
1741818510.6126487,-13426.178804180481,-4167.058070547351,-16365.075572142074,-29972.057637221533,-21777.438733272404,-17902.62972147819,-34398.79827485064,-187500.02235174447
1741818510.6126883,-13459.169978996513,-4198.015236617951,-16396.05508995713,-30009.072126039522,-21811.525143566745,-17933.095149170775,-34431.342414777566,-187500.02235174447
1741818510.612728,-13803.63271279725,-4541.002755284638,-16744.78700694883,-30362.63201983357,-22156.278450045404,-18274.629804447868,-34782.3095062148,-187500.02235174447
1741818510.612762,-13850.88430057577,-4592.85880242095,-16794.966673250994,-30411.381174490594,-22204.379404113224,-18330.464462097225,-34833.539704506366,-187500.02235174447
1741818510.6127691,-13486.126182809614,-4228.815940477364,-16428.10749150604,-30034.664873440848,-21843.622248604566,-17974.535283390916,-34463.841851215584,-187500.02235174447
1741818510.6127765,-13409.951437705928,-4155.122239008217,-16347.037714366641,-29963.20634641723,-21762.328954020617,-17900.819230177312,-34385.18606247736,-187500.02235174447
1741818510.6127844,-13756.895215141203,-4501.79779551003,-16692.461573178956,-30319.694318734924,-22109.540952389354,-18242.353885454402,-34735.25908413638,-187500.02235174447
1741818510.612792,-13884.70248993665,-4627.705172026775,-16825.365045710212,-30449.848526698177,-22242.153852242693,-18369.490607916192,-34867.04496944487,-187500.02235174447
1741818510.6127992,-13552.73438128643,-4297.055816299417,-16495.810925461166,-30105.05051673061,-21912.53267676028,-18041.81403420139,-34532.48405843783,-187500.02235174447
1741818510.6128066,-13387.197361850425,-4130.289450918371,-16326.339999001028,-29939.692311250248,-21743.01704681123,-17874.041840319853,-34363.72838780026,-187500.02235174447
1741818510.612814,-13684.162638683634,-4424.661925394765,-16624.355807823635,-30248.526364389225,-22040.83168993374,-18164.279242072018,-34665.09695829117,-187500.02235174447
1741818510.6128235,-13881.75205966855,-4621.513738812654,-16826.214411999514,-30450.094395887187,-22242.600887131797,-18360.929889789808,-34866.91085897814,-187500.02235174447
1741818510.6128309,-13609.843088369738,-4353.136343137782,-16555.758304090297,-30165.78020641568,-21973.575290867724,-18098.766279073512,-34591.76088473331,-187500.02235174447
1741818510.6128387,-13350.83107362164,-4095.4430813125473,-16290.823077061545,-29902.566063709983,-21711.54579061816,-17844.358723683206,-34327.31739608257,-187500.02235174447
1741818510.6128461,-13627.545669978343,-4374.459907348145,-16567.98470830735,-30192.73641022878,-21981.01842177134,-18118.01113104953,-34608.904672730525,-187500.02235174447
1741818510.6128535,-13893.643187718772,-4641.473846611243,-16840.51952845091,-30466.50057631738,-22249.395817446213,-18381.091163288496,-34881.93123125211,-187500.02235174447
1741818510.6128612,-13702.133441225702,-4448.220664050658,-16650.976735469907,-30263.792605852203,-22070.64891703712,-18191.16839065175,-34688.43217950251,-187500.02235174447
1741818510.6128683,-13371.528788987254,-4118.130101934684,-16316.035844807131,-29924.1131453649,-21735.7303781188,-17865.83875010476,-34351.74785277222,-187500.02235174447
1741818510.612887,-13546.25237539439,-4292.160784263705,-16490.155934113973,-30108.783258054646,-21906.318891801704,-18035.488490520536,-34530.472401436855,-187500.02235174447
1741818510.6128972,-13863.98242282658,-4609.421445062333,-16810.7693565809,-30434.179953835006,-22225.39004390121,-18349.552851862056,-34853.34335009377,-187500.02235174447
1741818510.6129045,-13753.05071509489,-4497.215687896692,-16705.559695429765,-30316.14039136653,-22120.314493216814,-18240.006952286596,-34743.350415629204,-187500.02235174447
1741818510.612912,-13372.109934343092,-4116.163148422617,-16321.668484409867,-29923.68846222025,-21738.569049664624,-17861.949546569533,-34354.74298652923,-187500.02235174447
1741818510.6129196,-13479.197142028468,-4222.736265985521,-16425.425282171404,-30039.537553732105,-21839.509527624792,-17968.03092575442,-34462.09841514807,-187500.02235174447
1741818510.612927,-13829.381922409764,-4570.708223665742,-16778.404030609614,-30397.9254243285,-22192.041241173894,-18311.91251419932,-34817.33468977627,-187500.02235174447
1741818510.6129344,-13799.072956928369,-4545.875435575895,-16752.83363495274,-30365.58245010167,-22164.258022815946,-18284.08459235246,-34790.825520852275,-187500.02235174447
1741818510.6129415,-13422.066083200703,-4172.221323516527,-16374.753877491223,-29977.287945424076,-21790.13452412302,-17914.49849778396,-34408.63304241098,-187500.02235174447
