Timestamp,EEG_1,EEG_2,EEG_3,EEG_4,EEG_5,EEG_6,EEG_7,EEG_8
1741731683.9051564,0.0,0.0,0.0,0.0,0.0,0.0,0.0,0.0
1741731684.38982,-76586.3748295754,-83945.35141531842,-74776.64348800702,-76286.30266026291,-126686.29010752322,-74879.52856773479,-75796.30771831366,-187500.02235174447
1741731684.3898387,-75989.04681075178,-82952.91160975833,-76129.75104209794,-74645.72932073228,-128300.89071999678,-74631.84888742553,-74973.71881886946,-187500.02235174447
1741731684.389856,-75860.34546617811,-82999.22442426973,-76427.07394684243,-74415.8639807539,-128392.801093197,-74502.32052830703,-75889.46978920339,-187500.02235174447
1741731684.3898644,-76431.9913306226,-83990.90427051834,-75105.34824196676,-76015.89125584261,-126784.16839649301,-74726.59793217159,-76816.46368699834,-187500.02235174447
1741731684.3898723,-76632.33001617552,-84072.13050986893,-74636.43099503887,-76450.6997407317,-126485.25851789219,-74885.00474512634,-76018.64052041061,-187500.02235174447
1741731684.38988,-76095.6646318036,-83097.95207952883,-75903.88666437706,-74909.90458844956,-128068.03024626139,-74686.54360610768,-75001.07735408275,-187500.02235174447
1741731684.389887,-75815.15023888949,-82882.74948391313,-76530.45076494823,-74264.81089172493,-128567.59173483751,-74497.69371720478,-75655.46937650077,-187500.02235174447
1741731684.389895,-76313.012994887,-83827.02128017203,-75339.21454420264,-75718.74716505375,-127051.9869985565,-74673.19961466786,-76750.4142821329,-187500.02235174447
1741731684.3899035,-76686.3988860129,-84188.31487754761,-74586.96658455928,-76574.52840501409,-126389.97303127922,-74903.60139651316,-76284.46981721757,-187500.02235174447
1741731684.3899112,-76207.5351128024,-83265.61251468808,-75651.02137935418,-75205.77462980445,-127791.36035339361,-74738.15378405497,-75083.66704984511,-187500.02235174447
1741731684.3899188,-75802.63326199452,-82811.06743944496,-76570.50509101214,-74195.40872519121,-128674.94716345635,-74506.99204289819,-75434.94706570472,-187500.02235174447
1741731684.3899264,-76227.62933106773,-83672.83894691932,-75622.7017191293,-75432.04133892553,-127384.93858396275,-74638.42030029539,-76680.81094989908,-187500.02235174447
1741731684.389934,-76679.98393535423,-84234.60534031455,-74575.32132569807,-76596.12019015792,-126332.88667594036,-74882.52370149181,-76475.17490091025,-187500.02235174447
1741731684.3899412,-76343.5231260685,-83469.59453458722,-75411.65654798229,-75534.56879074202,-127514.15401865888,-74800.02341270726,-75244.1078715453,-187500.02235174447
1741731684.3899488,-75810.90340744298,-82779.95381116317,-76540.55375344203,-74206.1599142742,-128686.27949789519,-74520.26897910464,-75241.42566221066,-187500.02235174447
1741731684.3899565,-76093.18358816905,-83465.7500345409,-75859.89843128901,-75107.20343675655,-127672.87375603602,-74575.41073267588,-76487.7589330386,-187500.02235174447
1741731684.3899643,-76646.1433942489,-84229.71030827884,-74628.98786413526,-76540.37493948638,-126355.73015877369,-74849.84545109814,-76629.2901789296,-187500.02235174447
1741731684.389972,-76441.02143538254,-83643.58051342733,-75149.9399721551,-75828.76245126277,-127201.16254105122,-74831.89700030054,-75408.16967584725,-187500.02235174447
1741731684.3899794,-75844.65454157049,-82789.31919208994,-76434.07004285694,-74289.7330867926,-128618.06197381759,-74545.57115382804,-75080.24723294345,-187500.02235174447
1741731684.3899868,-75995.46176141045,-83279.71646543939,-76095.17289342558,-74814.95437800341,-127976.47750097245,-74538.64211304691,-76289.54366320893,-187500.02235174447
1741731684.3899944,-76583.11147488494,-84177.4742814868,-74747.27329579274,-76402.55408317495,-126454.03313088813,-74807.7571162888,-76735.79624125913,-187500.02235174447
1741731684.3900027,-76504.6568518468,-83800.95914613715,-74903.19906511296,-76081.40421884111,-126894.40720014658,-74848.50434643083,-75575.67364879533,-187500.02235174447
1741731684.3900185,-75881.78078911077,-82836.32491067945,-76250.00342726748,-74433.92419027378,-128454.58131487148,-74574.20373847529,-74940.68294056451,-187500.02235174447
1741731684.390026,-75890.31915549269,-83096.00747776122,-76274.7021048906,-74549.81798527455,-128229.20867552861,-74507.77435395413,-76032.7444711619,-187500.02235174447
1741731684.3900385,-76515.0057095296,-84095.37632410244,-74929.90939973705,-76212.05016518237,-126644.78291806972,-74777.69401999642,-76812.68624218539,-187500.02235174447
1741731684.390046,-76630.31835917453,-83998.7273810777,-74767.41221754697,-76344.26073363551,-126705.93729089944,-74906.99886167036,-75882.98778331134,-187500.02235174447
1741731684.3900535,-76005.83297083771,-82974.61515362444,-76081.76184675239,-74687.75060030825,-128284.95392620015,-74644.25410559823,-74964.15227224259,-187500.02235174447
1741731684.390061,-75830.17061116346,-82953.78332779209,-76435.79112718,-74355.46956723566,-128453.0166927596,-74494.87739740341,-75799.48166602632,-187500.02235174447
1741731684.3900683,-76415.29457751449,-83960.34943584794,-75155.93023966912,-75953.66399927903,-126878.31394413876,-74725.79326937119,-76802.35973624703,-187500.02235174447
1741731684.390076,-76676.27354577465,-84117.86217902448,-74642.26480034171,-76497.39253489883,-126515.92511128487,-74912.43033557301,-76102.99600398494,-187500.02235174447
1741731684.3900836,-76142.26801899291,-83142.14147831696,-75870.29199246073,-74977.8985950826,-128056.98848450047,-74712.80690584266,-75036.52722078886,-187500.02235174447
1741731684.3900907,-75790.25039556628,-82839.96824502567,-76527.54503816903,-74218.7215946581,-128601.0075927982,-74486.71901067722,-75567.09057892449,-187500.02235174447
1741731684.3900983,-76304.74284943854,-83797.6287362133,-75408.41554503627,-75658.64332421342,-127157.77780506347,-74671.23266115578,-76745.34043614155,-187500.02235174447
1741731684.390106,-76680.78859815463,-84191.98056363828,-74574.44960766431,-76573.70139046924,-126388.65427835635,-74894.50423651985,-76316.67868097767,-187500.02235174447
1741731684.3901143,-76205.03171742341,-83280.72229393986,-75575.07015169504,-75247.19241228014,-127727.41201250697,-74732.90112410797,-75066.8138345258,-187500.02235174447
1741731684.3901217,-75763.29419175317,-82770.07434011392,-76541.1125470534,-74160.07061720737,-128676.19886114585,-74490.45175200126,-75336.91231452374,-187500.02235174447
1741731684.3901293,-76151.16401328612,-83592.41737036912,-75637.54327744762,-75325.40116612926,-127432.86072407494,-74606.12202955747,-76579.46814053871,-187500.02235174447
1741731684.3901372,-76644.22114422574,-84215.13697089397,-74555.33886615501,-76568.38167528888,-126335.43477480827,-74872.84539614266,-76470.1010549189,-187500.02235174447
1741731684.3901453,-76336.70584400963,-83489.1523109856,-75332.55372435495,-75581.59686107599,-127452.10557605095,-74807.7571162888,-75244.37609247876,-187500.02235174447
1741731684.3901532,-75794.67604096842,-82768.2414970686,-76508.76957282658,-74206.89752184124,-128691.66626830892,-74533.47886007772,-75181.36652485926,-187500.02235174447
1741731684.3901606,-76075.27984086036,-83437.34096733821,-75924.02558613129,-75051.63700004066,-127777.99401020934,-74590.8110846056,-76467.44119732872,-187500.02235174447
1741731684.390168,-76643.81881282554,-84238.7851165277,-74668.37163786551,-76529.84726784793,-126412.10125828997,-74865.53637570576,-76685.59422321251,-187500.02235174447
1741731684.390175,-76450.5432785205,-83681.93610691263,-75102.24134948746,-75888.88864384755,-127160.25884869801,-74848.97373306438,-75445.83236525445,-187500.02235174447
1741731684.3901849,-75846.57679159364,-82798.05872417196,-76408.25377801106,-74320.22086622965,-128616.76557263918,-74563.43019764785,-75050.54176456234,-187500.02235174447
1741731684.3901925,-75948.36663584312,-83222.58540661162,-76127.94055079705,-74748.23442080432,-128042.3704436267,-74531.10957516546,-76212.11722041575,-187500.02235174447
1741731684.3902,-76588.81116972103,-84178.14483382045,-74807.57830233316,-76389.59007139088,-126538.23215225126,-74825.61616010859,-76791.6756023974,-187500.02235174447
1741731684.390212,-76552.53428847007,-83861.2418009331,-74899.5780825112,-76160.3729320017,-126899.16812171557,-74882.07666660269,-75679.8104262126,-187500.02235174447
1741731684.3902204,-75952.16643240053,-82901.25672832213,-76275.26089850199,-74524.9404936958,-128499.55302471555,-74622.39409952094,-75021.708014215,-187500.02235174447
1741731684.390228,-75890.6097281706,-83076.09207345154,-76346.20533540312,-74524.13583089541,-128323.2424644521,-74513.56345576805,-76026.01659608085,-187500.02235174447
1741731684.3902352,-76472.0456566865,-84050.35991076946,-74971.68481012402,-76151.99102783097,-126691.92274712597,-74752.10127259509,-76795.60950942153,-187500.02235174447
1741731684.3902705,-76610.29119614259,-84000.24729970066,-74724.04983330368,-76362.18683268868,-126656.15995599747,-74888.55867249474,-75897.44936197394,-187500.02235174447
1741731684.390278,-75981.44721763697,-82968.04374075458,-76005.7435638599,-74709.72236510782,-128219.23979750155,-74627.02091062319,-74914.59845478517,-187500.02235174447
1741731684.3902855,-75788.26109030975,-82907.53756851406,-76438.3392260479,-74303.34529916589,-128486.54430944257,-74477.30892626154,-75720.13297320998,-187500.02235174447
1741731684.3902936,-76391.33350745839,-83935.3601855469,-75209.68618508414,-75901.9644143539,-126959.98721837846,-74721.32292048013,-76812.39566950747,-187500.02235174447
1741731684.3903012,-76693.3502785385,-84152.99912130822,-74640.78958520766,-76536.97747432918,-126526.07280326758,-74922.62273104463,-76190.52543527192,-187500.02235174447
1741731684.390309,-76160.7752634019,-83177.92662118991,-75821.9451692039,-75044.4620900705,-128024.77962074037,-74722.2393420028,-75066.65737231463,-187500.02235174447
1741731684.3903167,-75785.9812123753,-82830.35699490989,-76543.4147767323,-74212.8654376108,-128650.33789281106,-74488.39539151137,-75539.03913963308,-187500.02235174447
1741731684.390324,-76252.12684299074,-83743.02342450898,-75438.4562895842,-75584.50258785518,-127212.13724757878,-74643.36003582002,-76697.48535126273,-187500.02235174447
1741731684.390332,-76665.54470843611,-84194.34984855054,-74556.43410163333,-76578.50701552714,-126381.74758931967,-74885.16120733753,-76340.70680626713,-187500.02235174447
1741731684.3903394,-76239.45340388459,-83327.61625380711,-75532.87005816342,-75324.77531728451,-127696.23132899182,-74752.74947318429,-75116.0323758164,-187500.02235174447
1741731684.390348,-75760.92490684091,-82759.21139230864,-76535.43520396177,-74161.21055617458,-128693.78968403218,-74493.49158924718,-75297.43913381567,-187500.02235174447
1741731684.3903556,-76146.24662950596,-83568.67981775758,-75705.93961548086,-75277.03199112797,-127525.66516705338,-74604.28918651213,-76576.45065503725,-187500.02235174447
1741731684.390363,-76643.4388331698,-84219.69672676286,-74571.20860471828,-76563.24077406416,-126351.88565872738,-74863.50236696034,-76518.20200898671,-187500.02235174447
1741731684.3903704,-76353.08967269537,-83518.94718634454,-75273.32160154839,-75634.92812334636,-127395.17568292329,-74805.11961044307,-75270.59468872484,-187500.02235174447
1741731684.3903778,-75815.17259063394,-82771.81777618144,-76494.73267730864,-74224.64480693876,-128702.3280504141,-74535.82579324553,-75164.04392290639,-187500.02235174447
1741731684.3903875,-76059.20893659699,-83388.74827489236,-75964.01285696184,-74984.82763586374,-127847.66439767652,-74570.44864540681,-76426.00106310858,-187500.02235174447
1741731684.3903952,-76639.19200172329,-84221.35075585256,-74684.28607991769,-76498.71128782169,-126440.71149119276,-74846.87266908558,-76710.98580491374,-187500.02235174447
1741731684.3904026,-76464.44606357171,-83703.57259554537,-75040.84110746875,-75928.13830711106,-127103.32895557034,-74841.26238122731,-75476.38719992485,-187500.02235174447
1741731684.390415,-75841.61470432457,-82791.10733164637,-76353.96139072912,-74326.90403782178,-128582.81327281157,-74555.4953283662,-75000.74207791591,-187500.02235174447
1741731684.3904223,-75932.0275106463,-83189.10249341757,-76162.7198651695,-74687.10239971905,-128107.57048220283,-74524.38170008441,-76168.30780128334,-187500.02235174447
1741731684.39043,-76551.34964601394,-84145.13130725996,-74813.07683146917,-76325.68643399316,-126556.71704491581,-74804.71727904287,-76774.08477951107,-187500.02235174447
1741731684.3904374,-76565.54300374306,-83891.43900769223,-74847.47616618588,-76196.91803418614,-126852.0953478927,-74889.56450099523,-75719.88710402098,-187500.02235174447
1741731684.3904448,-75948.34428409867,-82901.63670797786,-76201.3883830772,-74540.7431770257,-128441.75141355413,-74620.78477392015,-74978.05505729378,-187500.02235174447
1741731684.390453,-75854.154032964,-83024.79481992661,-76342.96433245711,-74453.86194632792,-128351.7409386326,-74501.56056899556,-75939.53769678327,-187500.02235174447
1741731684.3904605,-76465.11661590537,-84032.99260532769,-75011.38150827665,-76102.12428595118,-126758.55329734723,-74758.58327848713,-76809.73581191729,-187500.02235174447
1741731684.390468,-76617.86843751294,-84022.62139590042,-74678.20640542584,-76387.39960043426,-126621.04536545818,-74897.54407376576,-75933.25685659134,-187500.02235174447
1741731684.3904755,-76058.6501429856,-83037.15533461039,-75991.55020613078,-74802.2585871528,-128231.4662017186,-74683.123789206,-74986.99575507591,-187500.02235174447
1741731684.390483,-75812.35627083258,-82901.43554227776,-76479.44408410121,-74294.71752580613,-128556.70643528778,-74502.23112132921,-75714.47798186279,-187500.02235174447
1741731684.3904903,-76343.09844292385,-83871.32243768245,-75229.73569986054,-75818.21242787987,-126996.04058218487,-74701.31810919262,-76751.50951761121,-187500.02235174447
1741731684.390498,-76680.60978419898,-84150.67453988487,-74600.13176204346,-76541.40311973133,-126487.27017489317,-74924.41087060104,-76193.1852928621,-187500.02235174447
1741731684.3905056,-76185.80921719184,-83210.6942785614,-75760.94725858537,-75105.50470417795,-127970.956620092,-74749.50847023827,-75070.65833457212,-187500.02235174447
1741731684.3905132,-75803.50498002827,-82825.3949076408,-76562.05613160803,-74208.37273697529,-128693.87909100999,-74516.78210696961,-75508.5737119405,-187500.02235174447
1741731684.3905208,-76278.501901448,-83739.78242156297,-75534.16645934182,-75550.23736360519,-127328.12044955736,-74675.09951294656,-76735.97505521477,-187500.02235174447
1741731684.390528,-76704.07911587704,-84231.36433736853,-74590.36404971649,-76608.39129786388,-126413.24119725719,-74912.29622510627,-76433.31008354547,-187500.02235174447
1741731684.3905356,-76280.64766891571,-83379.6287631546,-75492.79338035505,-75401.8441321664,-127657.04872096167,-74778.58808977462,-75160.19942286008,-187500.02235174447
1741731684.3905432,-75787.07644785363,-82771.81777618144,-76546.49931746714,-74179.33782092785,-128727.94314955988,-74514.3904703129,-75280.29534581845,-187500.02235174447
1741731684.3905535,-76116.49645763593,-83523.68575616906,-75751.3807119585,-75205.66287108218,-127595.29085103165,-74593.98503231825,-76524.8628288344,-187500.02235174447
1741731684.3905609,-76657.25221124318,-84235.38765137049,-74598.94711958732,-76565.65476246533,-126390.42006616833,-74873.00185835385,-76572.49439626865,-187500.02235174447
1741731684.3905685,-76381.05170500895,-83560.7225967315,-75225.44416492512,-75700.4187346004,-127346.85121141092,-74815.46846812588,-75311.54308456696,-187500.02235174447
1741731684.390576,-75800.71101197136,-82758.76435741954,-76455.41595881176,-74226.38824300627,-128679.90925072542,-74532.36127285496,-75092.42893367159,-187500.02235174447
1741731684.390588,-76015.42186920904,-83336.89222775606,-75997.29460445579,-74909.435201816,-127906.69535478299,-74560.99385750221,-76347.61349530381,-187500.02235174447
1741731684.3905952,-76592.65566976735,-84189.09718860355,-74681.51446360523,-76449.60450525337,-126447.68523546282,-74835.1156515021,-76682.95671736679,-187500.02235174447
1741731684.3906028,-76513.2622734621,-83769.26437249951,-75018.95874964699,-76014.08076454172,-127090.83433041982,-74884.02126837031,-75558.10517765346,-187500.02235174447
1741731684.3906102,-75919.51053375132,-82857.55906791199,-76380.13528348629,-74412.86884699689,-128627.82968614456,-74610.72648891527,-75076.2239189415,-187500.02235174447
1741731684.3906176,-75956.16739465803,-83184.02864742621,-76250.18224122313,-74669.31041113262,-128216.37877421128,-74547.38164512893,-76185.71981021402,-187500.02235174447
1741731684.390625,-76577.90351842684,-84154.47433644228,-74901.94736742346,-76320.23260834606,-126645.40876691446,-74818.82122979418,-76855.8921642175,-187500.02235174447
1741731684.3906324,-76583.69262024076,-83919.78101966156,-74826.68904384245,-76247.92471503315,-126810.69991716146,-74889.09511436167,-75776.97345935983,-187500.02235174447
1741731684.39064,-75957.39674060306,-82914.17603661728,-76164.55270821485,-74584.351430458,-128398.18786361074,-74622.63996870995,-74959.86073730717,-187500.02235174447
1741731684.3906472,-75865.15109123601,-83014.60242445498,-76411.80770537946,-74437.92515253129,-128433.10128844992,-74513.1387726234,-75925.7243187099,-187500.02235174447
1741731684.3906555,-76443.61423773936,-84006.7293055927,-75075.64277358566,-76054.60447723919,-126815.19261779699,-74742.35591201257,-76817.84949515456,-187500.02235174447
1741731684.3906636,-76643.79646108109,-84063.30157080908,-74685.20250144035,-76439.70268245968,-126608.2378158853,-74903.95902442445,-76012.00205230738,-187500.02235174447
1741731684.390671,-76091.08252419025,-83081.0094572317,-75973.11001695515,-74875.05821884373,-128197.40214316871,-74690.34340266508,-75024.43492703854,-187500.02235174447
1741731684.3906784,-75793.37963979002,-82875.50751870961,-76508.16607572629,-74266.62138302582,-128586.83658681353,-74483.14273156438,-75662.01843762618,-187500.02235174447
1741731684.390686,-76298.17143656868,-83824.4284778152,-75278.30604056192,-75746.28451422269,-127039.51472515044,-74663.00721919622,-76719.09948815101,-187500.02235174447
1741731684.3906937,-76635.95099877728,-84132.07788849805,-74558.4010551454,-76527.54503816903,-126425.86993287444,-74879.79678866826,-76180.37774328921,-187500.02235174447
1741731684.390701,-76170.6770861956,-83219.05383098767,-75684.32547859258,-75144.240277319,-127886.66819175103,-74726.77674612722,-75044.4620900705,-187500.02235174447
1741731684.3907084,-75763.3388952421,-82787.70986648917,-76542.1630790428,-74178.39904766071,-128685.85481475054,-74487.6354321999,-75423.97235917716,-187500.02235174447
1741731684.3907177,-76219.82857225282,-83678.24806907751,-75561.65910502186,-75468.34057192094,-127367.88420294336,-74637.95091366183,-76670.88677536092,-187500.02235174447
1741731684.3907256,-76690.37749652595,-84228.23509314479,-74583.43500893534,-76602.35632686094,-126400.21013023975,-74896.8735214321,-76460.86978445886,-187500.02235174447
1741731684.3907328,-76296.09272433433,-83406.94259487899,-75435.48350757164,-75459.53398460556,-127588.16064455041,-74779.7503804863,-75185.9486324726,-187500.02235174447
1741731684.3907516,-75784.2824797967,-82756.10449982935,-76534.65289290583,-74183.47289365207,-128721.70701285684,-74512.71408947874,-75239.77163312098,-187500.02235174447
1741731684.3907597,-76115.02124250188,-83493.93558429905,-75826.77314600625,-75161.5405275274,-127679.0875409946,-74593.3591834735,-76524.52755266757,-187500.02235174447
1741731684.3907723,-76644.31055120355,-84221.64132853047,-74616.9626256183,-76549.44974773524,-126391.04591501308,-74855.52279418979,-76603.00452745015,-187500.02235174447
1741731684.39078,-76385.27618471101,-83582.6273062977,-75165.80971071837,-75757.34862772806,-127268.8436232619,-74811.15458144601,-75327.21165743013,-187500.02235174447
1741731684.3907871,-75827.4436983399,-82779.10444487387,-76454.41013031127,-74272.0752086729,-128681.4738728373,-74546.80049977309,-75096.474599418,-187500.02235174447
1741731684.3907948,-76004.00012779237,-83305.48802679635,-76059.0524743858,-74864.6199541831,-127975.11404456069,-74548.76745328515,-76323.85359094782,-187500.02235174447
1741731684.390802,-76594.7790854906,-84187.86784265851,-74727.31318799415,-76434.15944983477,-126484.27504113616,-74821.61519785109,-76723.94981669782,-187500.02235174447
1741731684.3908093,-76517.8667328199,-83793.69482918916,-74967.23681297741,-76059.47715753045,-127017.76647779543,-74866.43044548399,-75580.50162559768,-187500.02235174447
1741731684.3908172,-75912.31327203671,-82855.88268707784,-76326.58050377137,-74435.15353621883,-128573.96198200727,-74595.68376489685,-75021.99858689292,-187500.02235174447
1741731684.3908246,-75899.170446297,-83118.00159430523,-76250.15988947867,-74587.100695026,-128228.64988191723,-74507.99787139868,-76074.63164027115,-187500.02235174447
1741731684.8692613,-76505.64032860284,-84091.80004498959,-74882.52370149181,-76230.53505784692,-126634.41170864245,-74772.03902864922,-76772.40839867693,-187500.02235174447
1741731684.8693583,-76575.37777130339,-83937.48360127016,-74759.81262443216,-76272.44457870061,-126747.53388733076,-74879.79678866826,-75782.96372687384,-187500.02235174447
1741731684.8694024,-75961.95649647195,-82934.2702548826,-76095.88814924815,-74621.50002974273,-128345.1918775072,-74624.69632919984,-74932.97158872744,-187500.02235174447
1741731684.8694108,-75812.78095397723,-82961.47232788472,-76389.38890569078,-74366.66779120777,-128441.08086122047,-74487.79189441109,-75817.81009647968,-187500.02235174447
1741731684.8694184,-76421.46365898415,-83984.37756113739,-75105.9740908115,-75999.01568877885,-126873.8435952477,-74739.85251663357,-76808.61822469452,-187500.02235174447
1741731684.86943,-76646.97040879374,-84090.95067870029,-74643.06946314209,-76467.06121767298,-126572.94441139036,-74911.31274835023,-76050.11177660368,-187500.02235174447
1741731684.8694377,-76076.03980017183,-83089.74898931372,-75871.4095796835,-74904.02607965781,-128109.71624967054,-74690.633975343,-74968.80143508929,-187500.02235174447
1741731684.8694465,-75801.73919221631,-82876.82627163247,-76519.09607876492,-74254.17146136421,-128637.50799149371,-74509.22721734372,-75621.36061446198,-187500.02235174447
1741731684.8694544,-76355.48130935208,-83864.52750736804,-75388.79071340451,-75745.52455491122,-127182.5211861755,-74715.28794947719,-76812.46272474084,-187500.02235174447
1741731684.8694658,-76714.04799390413,-84218.40032558446,-74610.48061972627,-76599.78587624858,-126477.81538698857,-74931.5857805712,-76330.17913462868,-187500.02235174447
1741731684.8694735,-76233.48548811501,-83297.84373019263,-75667.82989118456,-75239.92809533216,-127861.58953447218,-74766.11581636856,-75116.07707930531,-187500.02235174447
1741731684.869481,-75790.67507871093,-82809.50281733308,-76571.91325091282,-74195.16285600219,-128722.39991693497,-74514.47987729072,-75407.32030955795,-187500.02235174447
1741731684.869489,-76196.11337138574,-83652.70002516509,-75619.7512888612,-75407.87910316934,-127426.95986353874,-74634.79931769363,-76628.2396469402,-187500.02235174447
1741731684.869497,-76684.34252552301,-84246.51882010924,-74592.5098171842,-76606.62551005192,-126394.5327871481,-74901.52268427881,-76481.56749982446,-187500.02235174447
1741731684.8695056,-76316.96925365558,-83458.9998077154,-75389.12598957133,-75531.93128489629,-127526.29101589812,-74801.11864818557,-75204.63469083724,-187500.02235174447
1741731684.8695168,-75793.96078514586,-82774.90231691627,-76532.90945683832,-74204.93056832918,-128723.56220764664,-74535.19994440078,-75201.9971849915,-187500.02235174447
1741731684.8695245,-76093.63062305815,-83473.70725556699,-75884.66416414549,-75108.32102397931,-127743.59467549261,-74603.32806150056,-76486.46253186018,-187500.02235174447
1741731684.8695323,-76673.68074341783,-84263.08146275062,-74676.06063795813,-76568.04639912205,-126442.05259586008,-74892.80550394124,-76682.21910979976,-187500.02235174447
1741731684.8695395,-76462.68027575973,-83676.30346730989,-75178.57255680235,-75864.30172494671,-127260.79699525799,-74868.71032341842,-75450.03449321205,-187500.02235174447
1741731684.8695471,-75856.8585940431,-82811.31330863397,-76457.11469139036,-74314.87879930482,-128674.43307333387,-74576.41656117637,-75095.8711023177,-187500.02235174447
1741731684.8695545,-75974.71934255592,-83269.79229090123,-76106.6616900756,-74806.52777034376,-128020.93512069406,-74552.92487775385,-76258.83236632733,-187500.02235174447
1741731684.8695676,-76588.40883832084,-84189.63363047047,-74774.00598216128,-76412.61236817985,-126520.14959098693,-74838.7142823594,-76748.04499722064,-187500.02235174447
1741731684.8695755,-76552.24371579215,-83851.11646069484,-74948.57310635723,-76129.72869035348,-126981.95898317803,-74903.91432093552,-75648.09330083053,-187500.02235174447
1741731684.8695831,-75965.91275524054,-82913.28196683907,-76331.78846022945,-74511.01535690014,-128577.42650239785,-74647.9197916889,-75061.04708445634,-187500.02235174447
1741731684.8695903,-75944.16450788552,-83143.5272864732,-76351.36858837231,-74596.13079978595,-128338.32989195942,-74556.7470260557,-76112.5178471229,-187500.02235174447
1741731684.869598,-76562.52551824159,-84134.62598736596,-75005.3018337848,-76250.4504621566,-126745.29871288524,-74818.55300886072,-76885.21765294285,-187500.02235174447
1741731684.8696055,-76658.5933159105,-84024.16366626784,-74808.40531687801,-76373.51916712751,-126766.77873930678,-74931.31755963774,-75928.45123153344,-187500.02235174447
1741731684.869614,-76011.80088660728,-82983.10881651746,-76094.8599690032,-74702.59215862658,-128322.54956037398,-74654.58061153658,-74966.18628098801,-187500.02235174447
1741731684.8696215,-75835.93736123292,-82959.57242960602,-76461.83090947043,-74363.87382315086,-128509.03016436461,-74508.28844407659,-75802.52150327225,-187500.02235174447
1741731684.8696291,-76440.99908363809,-83983.34938089245,-75206.51223737148,-75976.52983385681,-126960.74717768993,-74752.9953423733,-76848.89606820299,-187500.02235174447
1741731684.8696373,-76708.46005779029,-84149.93693231785,-74685.15779795144,-76536.44103246224,-126587.13776911948,-74939.7888707863,-76167.54784197186,-187500.02235174447
1741731684.8696449,-76151.16401328612,-83156.80422267965,-75883.43481820045,-75005.32418552926,-128096.52872044191,-74724.00512981476,-75056.01794195389,-187500.02235174447
1741731684.869652,-75804.57786376213,-82855.21213474419,-76555.70823618272,-74239.6204757238,-128662.87722145049,-74503.28165331861,-75582.91561399885,-187500.02235174447
1741731684.8696597,-76315.02465188797,-83805.49655026157,-75443.66424604229,-75668.34398130703,-127222.01671862803,-74685.15779795144,-76763.33359042807,-187500.02235174447
1741731684.8696668,-76705.30846182209,-84213.86292146002,-74607.15020980242,-76601.5293123161,-126448.40049128539,-74915.76074549684,-76353.71552154011,-187500.02235174447
1741731684.8696744,-76247.18710746612,-83316.79800949074,-75611.19057073482,-75295.76275298152,-127789.08047545917,-74764.3500285566,-75121.55325669686,-187500.02235174447
1741731684.8696816,-75800.10751487107,-82794.37068633684,-76585.50311154165,-74196.32514671388,-128746.00335907977,-74517.63147325891,-75373.90445159728,-187500.02235174447
1741731684.8696892,-76179.90835665565,-83606.05193448687,-75689.89106296195,-75343.79665181598,-127508.34256510051,-74621.99176812074,-76609.57594032,-187500.02235174447
1741731684.8697138,-76692.47856050475,-84250.3856719,-74617.8566953965,-76608.16778041933,-126416.12457229193,-74897.05233538775,-76543.03479707656,-187500.02235174447
1741731684.869722,-76366.21014669063,-83512.42047696358,-75361.27571598002,-75615.25858822568,-127495.66912599435,-74818.53065711627,-75288.38667731127,-187500.02235174447
1741731684.8697302,-75814.90436970048,-82776.51164251706,-76536.99982607363,-74223.46016448262,-128740.59423692159,-74538.39624385789,-75195.60458607729,-187500.02235174447
1741731684.8697379,-76066.74147447843,-83417.17969383951,-75944.29861835226,-75031.49807828643,-127819.05416477373,-74576.84124432103,-76443.50247901709,-187500.02235174447
1741731684.8697453,-76649.69732161729,-84234.5829885701,-74691.25982418774,-76524.75107011212,-126453.96607565477,-74860.35077099214,-76691.94211863782,-187500.02235174447
1741731684.8697581,-76464.11078740488,-83691.12267388376,-75110.91382633612,-75902.25498703182,-127183.03527629797,-74847.92320107498,-75461.25506892861,-187500.02235174447
1741731684.8697655,-75884.48535018985,-82826.6019018414,-76444.12832786184,-74347.78056714304,-128670.65562852094,-74578.51762515517,-75086.05868650183,-187500.02235174447
1741731684.8697731,-75987.32572642872,-83253.6990348934,-76192.80531320635,-74763.3442000561,-128122.3896887767,-74547.18047942883,-76264.01797104097,-187500.02235174447
1741731684.8697803,-76576.85298643744,-84172.84747038454,-74823.13511647405,-76366.54542285745,-126559.84628913955,-74808.3606133891,-76783.29369822665,-187500.02235174447
1741731684.869788,-76535.68107315077,-83855.27388516354,-74879.10388459013,-76146.49249869496,-126887.9028425101,-74862.89886986004,-75650.52964097615,-187500.02235174447
1741731684.869795,-75943.0245689183,-82899.98267888818,-76255.97134303706,-74515.64216800239,-128498.01075434814,-74611.93348311585,-74986.97340333145,-187500.02235174447
1741731684.8698027,-75891.19087352644,-83079.109558953,-76359.79519603196,-74508.46725803224,-128360.27930501454,-74514.36811856844,-76007.19642724948,-187500.02235174447
1741731684.86981,-76489.81529352847,-84070.32001856805,-75008.36402277517,-76149.46528070752,-126748.22679140887,-74766.22757509084,-76821.22460856731,-187500.02235174447
1741731684.8698175,-76643.1929639808,-84037.12767805191,-74749.642580705,-76388.69600161267,-126696.3036890392,-74911.35745183915,-75945.30444685274,-187500.02235174447
1741731684.869825,-76074.58693678225,-83048.37591032695,-76078.38673333963,-74788.1993398904,-128311.03841197949,-74685.38131539599,-75033.33092133176,-187500.02235174447
1741731684.8698332,-75839.29012290122,-82941.93690323079,-76504.61214835789,-74333.98954081412,-128561.73557779021,-74501.09118236198,-75786.5847094756,-187500.02235174447
1741731684.8698406,-76384.02448702151,-83923.51376098559,-75236.08359528585,-75881.49021643284,-126989.53622454837,-74707.33072845111,-76799.45400946785,-187500.02235174447
1741731684.869848,-76707.2530635897,-84168.04184532665,-74663.99069595226,-76550.67909368029,-126549.54213494566,-74922.46626883344,-76213.77124950543,-187500.02235174447
1741731684.8698556,-76147.85595510673,-83174.23858335479,-75807.70710798587,-75048.10542441672,-128009.98276591096,-74706.57076913962,-75041.93634294705,-187500.02235174447
1741731684.869863,-75771.83255813511,-82818.64468081531,-76546.90164886734,-74201.37664096078,-128663.70423599533,-74476.61602218343,-75504.23747351617,-187500.02235174447
1741731684.8698704,-76238.15700270618,-83730.64055808075,-75458.84108052743,-75563.87192772292,-127242.78148922701,-74632.7206054593,-76678.17344405335,-187500.02235174447
1741731684.8698895,-76674.46305447377,-84208.16322662393,-74578.74114259973,-76591.71689650022,-126410.84956060047,-74886.97169863842,-76368.80294904744,-187500.02235174447
1741731684.869897,-76261.08989251732,-83355.39947216505,-75545.61055250294,-75361.36512295784,-127717.398430991,-74760.81845293265,-75152.42101578963,-187500.02235174447
1741731684.8699045,-75791.01035487776,-82783.84301469839,-76569.29809681154,-74191.67598386717,-128742.71765264485,-74503.32635680752,-75333.67131157772,-187500.02235174447
1741731684.8699117,-76156.43902497758,-83572.0772829148,-75745.81512758913,-75280.69767721865,-127579.55522293512,-74601.83049462206,-76596.61192853593,-187500.02235174447
1741731684.869919,-76664.02478981313,-84236.59464557108,-74606.92669235787,-76584.4302278078,-126394.06340051454,-74863.27884951579,-76563.26312580862,-187500.02235174447
1741731684.8699267,-76338.2704661215,-83511.97344207448,-75254.09910131682,-75645.76871940718,-127376.02023792508,-74783.50547355479,-75255.90959261771,-187500.02235174447
1741731684.869939,-75806.07543064063,-82768.0403313685,-76493.95036625271,-74233.69726344314,-128712.40868716345,-74527.10861290796,-75146.22958257551,-187500.02235174447
1741731684.8699472,-76016.51710468734,-83353.90190528655,-75959.52015632631,-74949.84715579118,-127850.681883178,-74543.87242124944,-76374.03325724999,-187500.02235174447
1741731684.8699548,-76607.40782110784,-84200.78715095368,-74674.31720189062,-76477.92416547825,-126441.58320922652,-74830.33237818866,-76682.28616503313,-187500.02235174447
1741731684.869962,-76484.07089520346,-83729.6123778358,-75046.5184505604,-75963.52111858381,-127118.9528249446,-74853.10880578862,-75514.74279341016,-187500.02235174447
1741731684.8699696,-75880.95377456592,-82827.42891638624,-76384.94090854417,-74368.79120693103,-128623.64990993142,-74572.70617159679,-75054.83329949777,-187500.02235174447
1741731684.8699777,-75928.60769374463,-83184.65449627096,-76187.9326329151,-74675.85947225803,-128141.20985760808,-74512.89290343439,-76166.78788266038,-187500.02235174447
1741731684.869985,-76532.39536671583,-84133.79897282113,-74823.58215136315,-76305.12282909428,-126569.68105669989,-74782.65610726549,-76766.08285499607,-187500.02235174447
1741731684.8699925,-76529.93667482576,-83876.41863541826,-74807.86887501107,-76183.79756019087,-126812.51040846235,-74856.26040175682,-75681.2632896022,-187500.02235174447
1741731684.87,-75923.422089031,-82895.2664608081,-76164.95503961504,-74539.42442410284,-128415.80103824152,-74600.26587251018,-74932.6363125606,-187500.02235174447
1741731684.8700073,-75859.6525621,-83037.89294217741,-76366.3219054129,-74457.84055684097,-128394.76804670907,-74504.19807484128,-75939.71651073892,-187500.02235174447
1741731684.870015,-76462.94849669319,-84043.07324207702,-75038.74004348995,-76096.1563701816,-126792.57265240821,-74752.05656910618,-76824.77853593571,-187500.02235174447
1741731684.870022,-76609.24066415319,-84037.4406024743,-74668.61750705451,-76398.48606568409,-126610.31652811964,-74886.97169863842,-75935.71554848141,-187500.02235174447
1741731684.8700297,-76074.47517805996,-83071.28644839364,-75994.09830499868,-74838.42370968148,-128240.31749252291,-74689.00229799775,-75007.73817393043,-187500.02235174447
1741731684.8700368,-75840.13948919052,-82933.6220542934,-76525.95806431271,-74318.7903545845,-128614.44099121583,-74513.74226972369,-75758.60032541756,-187500.02235174447
1741731684.8700452,-76320.54553276843,-83862.67231257824,-75245.5607349349,-75793.02201187874,-127013.72081204901,-74677.62526007,-76741.83121226207,-187500.02235174447
1741731684.8700523,-76654.05591178607,-84146.9641503053,-74580.86455832298,-76530.16019227031,-126470.01462817367,-74895.59947199815,-76177.22614732101,-187500.02235174447
1741731684.8700597,-76184.60222299126,-83225.98287176882,-75742.73058685429,-75124.74955615397,-127963.20056476601,-74737.8408596326,-75072.04414272835,-187500.02235174447
1741731684.8700671,-75768.88212786701,-82804.76424750856,-76535.92694233978,-74186.89271055373,-128681.13859667047,-74487.74719092216,-75454.28132465856,-187500.02235174447
1741731684.8700745,-76216.72167977353,-83693.51431054049,-75498.22485425769,-75494.93914782276,-127310.08259178193,-74634.17346884888,-76648.57973439453,-187500.02235174447
1741731684.8700817,-76687.94115638032,-84228.50331407826,-74572.19208147432,-76601.5293123161,-126412.74945887917,-74902.95319592395,-76420.90486537277,-187500.02235174447
1741731684.8700895,-76293.11994232178,-83401.98050760991,-75477.79535982554,-75431.21432438068,-127658.32277039562,-74787.3499736011,-75180.02542019195,-187500.02235174447
1741731684.8700972,-75816.6925092569,-82796.35999159336,-76567.12997759938,-74210.02676606498,-128767.46103375686,-74535.37875835643,-75312.23598864509,-187500.02235174447
1741731684.870109,-76158.71890291202,-83549.5690762483,-75811.48455279882,-75228.3051882154,-127669.74451181229,-74619.82364890858,-76585.078428397,-187500.02235174447
1741731684.8701172,-76682.73319992224,-84255.88420103601,-74629.99369263575,-76585.5254632861,-126424.6405869294,-74884.24478581487,-76622.40584163736,-187500.02235174447
1741731684.8701248,-76413.05940306895,-83594.65254481466,-75234.6083801518,-75746.03864503368,-127358.89880167233,-74832.23227646736,-75361.45452993567,-187500.02235174447
1741731684.870132,-75830.21531465236,-82784.15593912077,-76476.29248813301,-74262.75453123504,-128704.89850102646,-74545.97348522824,-75123.85548637576,-187500.02235174447
1741731684.8701394,-76004.11188651466,-83322.87768398257,-76009.61041565066,-74895.3759545536,-127922.20746543497,-74548.23101141823,-76322.78070721397,-187500.02235174447
1741731684.8701477,-76626.89854227287,-84219.36145059603,-74725.34623448209,-76474.23612764313,-126496.72496279776,-74849.28665748677,-76735.05863369211,-187500.02235174447
1741731684.870155,-76525.10869802341,-83790.83380589889,-75015.78480193434,-76041.19343056601,-127081.73717042652,-74881.40611426903,-75578.26645115214,-187500.02235174447
1741731684.8701625,-75917.9682633839,-82864.84573660443,-76366.38896064628,-74427.44218438175,-128615.93855809433,-74606.32319525757,-75053.84982274173,-187500.02235174447
1741731684.87017,-75950.06536842172,-83180.80999622465,-76260.06171227238,-74657.97807669379,-128232.60614068582,-74541.43608110382,-76161.64698143565,-187500.02235174447
1741731684.8701775,-76555.70823618272,-84144.50545841521,-74892.58198649669,-76293.92460512217,-126643.35240642459,-74803.62204356457,-76822.27514055671,-187500.02235174447
1741731684.8701851,-76603.13863791688,-83949.82176420948,-74822.66572984049,-76272.95866882309,-126815.438486986,-74900.78507671179,-75801.78389570522,-187500.02235174447
1741731684.8701928,-76009.09632552818,-82966.0320837536,-76189.00551664896,-74636.54275376115,-128433.74948903912,-74652.90423070244,-75019.36108104719,-187500.02235174447
1741731684.8702004,-75875.76816985228,-83024.01250887067,-76431.41018526677,-74437.61222810892,-128459.58810562946,-74515.01631915764,-75930.01585364531,-187500.02235174447
1741731684.870208,-76444.26243832856,-84009.09859050496,-75094.39588718365,-76043.83093641173,-126837.41025178555,-74740.97010385634,-76818.36358527704,-187500.02235174447
1741731684.8702157,-76630.47482138572,-84061.84870741949,-74659.5203470612,-76437.6910254587,-126578.66645797092,-74894.43718128648,-75993.47245615393,-187500.02235174447
1741731684.870223,-76073.20112862601,-83074.34863738401,-75925.92548440999,-74873.09126533166,-128153.86094496977,-74683.03438222819,-74975.73047587043,-187500.02235174447
1741731684.8702304,-75814.43498306692,-82891.80194041753,-76520.39247994334,-74274.46684532963,-128615.26800576068,-74503.77339169662,-75666.39937953942,-187500.02235174447
1741731684.8702376,-76332.45901256312,-83851.20586767267,-75320.10380269335,-75755.96281957184,-127094.5000165105,-74690.72338232081,-76764.13825322846,-187500.02235174447
1741731684.870246,-76709.82351420207,-84197.30027881864,-74612.24640753823,-76581.90448068434,-126487.91837548238,-74928.0318532028,-76289.83423588684,-187500.02235174447
1741731684.8702538,-76244.46019464257,-83282.28691605174,-75724.29039767866,-75206.6016443493,-127930.34350041671,-74769.06624663666,-75138.45117550506,-187500.02235174447
1741731684.8702612,-75810.67988999843,-82819.15877093778,-76582.39621906236,-74204.19296076214,-128730.67006238343,-74512.15529586737,-75465.32308641948,-187500.02235174447
1741731684.8702683,-76238.6934445731,-83687.65815349319,-75599.07592524003,-75462.28324917356,-127407.08916271797,-74644.25410559823,-76685.12483657895,-187500.02235174447
1741731684.8702805,-76704.23557808824,-84245.51299160875,-74597.24838700872,-76610.1347339314,-126412.57064492353,-74898.7287162219,-76483.4003428698,-187500.02235174447
1741731684.870288,-76318.42211704518,-83436.84922896019,-75431.86252496988,-75488.07716227497,-127587.80301663913,-74787.12645615655,-75210.4014409067,-187500.02235174447
1741731684.8702955,-75803.05794513917,-82776.46693902815,-76545.53819245555,-74194.35819320181,-128738.91785608744,-74519.12904013741,-75252.7132931606,-187500.02235174447
1741731684.870303,-76072.35176233671,-83460.98911297192,-75805.53898877371,-75109.23744550199,-127661.34025589708,-74563.87723253695,-76462.99320018211,-187500.02235174447
1741731684.8703103,-76589.05703891005,-84186.70555194683,-74563.6537150924,-76496.83374128744,-126344.33076910148,-74825.4149944085,-76526.40509920182,-187500.02235174447
1741731684.8703177,-76394.86508308233,-83603.36972515222,-75140.99927437297,-75767.33985749958,-127256.50546032256,-74825.0126630083,-75332.77724179951,-187500.02235174447
1741731684.870325,-75855.31632367568,-82804.00428819709,-76457.94170593521,-74285.039220457,-128696.60600383354,-74571.38741867393,-75118.62517817321,-187500.02235174447
1741731684.8703325,-76012.60554940767,-83308.39375357554,-76077.00092518341,-74847.92320107498,-128000.55032975083,-74563.4525493923,-76329.79915497293,-187500.02235174447
1741731684.87034,-76601.46225708273,-84198.95430790834,-74741.10421432307,-76425.95635961967,-126501.39647738893,-74836.8143840807,-76746.6144855755,-187500.02235174447
1741731684.8703485,-76500.94646226722,-83793.94069837818,-74931.11639393764,-76052.23519232693,-126978.98620116548,-74866.85512862864,-75566.08475042401,-187500.02235174447
1741731684.870367,-75909.96633886891,-82864.08577729294,-76303.49115174904,-74438.26042869812,-128558.56163007756,-74610.52532321517,-75004.07248783976,-187500.02235174447
1741731685.3494403,-75948.97013294342,-83160.13463260348,-76306.97802388406,-74614.57098896158,-128298.02969670651,-74553.21545043176,-76143.09503353776,-187500.02235174447
1741731685.3494668,-76527.85796259141,-84116.05168772361,-74921.50514382185,-76241.77798530794,-126672.7449503833,-74795.01662194928,-76821.1799050784,-187500.02235174447
1741731685.3494756,-76605.99966120717,-83973.91694473231,-74776.71054324038,-76310.4648960191,-126760.40849213702,-74907.31178609275,-75833.2998553872,-187500.02235174447
1741731685.349484,-76037.93007587554,-82999.55970043656,-76147.11834753971,-74693.33853642209,-128398.4560845442,-74678.63108857049,-75027.56417126229,-187500.02235174447
1741731685.349492,-75850.95773350689,-82985.67926712982,-76440.66380747125,-74387.09728563992,-128488.53361469909,-74514.54693252408,-75858.5573266217,-187500.02235174447
1741731685.3495,-76415.56279844795,-83977.71674128971,-75126.26947477693,-75981.73779031489,-126887.0981797097,-74737.28206602122,-76797.17413153341,-187500.02235174447
1741731685.3495083,-76667.42225497034,-84114.04003072262,-74656.10053015954,-76490.66465981778,-126580.49930101626,-74923.40504210055,-76082.79002699733,-187500.02235174447
1741731685.3495169,-76115.17770471307,-83125.78000137568,-75889.67095490349,-74950.38359765812,-128126.10007835628,-74713.32099596513,-75016.45535426801,-187500.02235174447
1741731685.3495245,-75827.66721578446,-82889.36560027189,-76553.22719254819,-74272.63400228429,-128672.868451222,-74521.49832504969,-75647.57921070805,-187500.02235174447
1741731685.3495328,-76344.30543712444,-83846.26613214806,-75407.9014549138,-75726.88320003549,-127199.08382881687,-74704.11207724953,-76799.78928563467,-187500.02235174447
1741731685.3495407,-76731.75057551272,-84230.76084026824,-74626.23859956725,-76618.36017589095,-126492.67929705135,-74936.0337777178,-76364.98080074559,-187500.02235174447
1741731685.3495493,-76252.88680230222,-83310.83009372118,-75661.75021669272,-75269.9688398801,-127858.25912454833,-74769.46857803686,-75142.72035869604,-187500.02235174447
1741731685.3495567,-75786.47295075333,-82792.62725026933,-76567.44290202176,-74190.5136931555,-128728.81486759364,-74505.96386265324,-75390.22122504965,-187500.02235174447
1741731685.3495643,-76176.35442928725,-83621.3405276943,-75625.07100404156,-75377.5924894324,-127446.31647423703,-74619.82364890858,-76608.12307693042,-187500.02235174447
1741731685.349572,-76662.70603689027,-84224.88233147649,-74571.76739832967,-76590.86753021092,-126385.83795855498,-74886.43525677148,-76469.36344735188,-187500.02235174447
1741731685.3495796,-76337.82343123239,-83475.87537477915,-75372.07160855194,-75563.51429981165,-127526.8498095095,-74810.75225004581,-75237.69292088663,-187500.02235174447
1741731685.3495877,-75796.48653226931,-82765.44752901168,-76515.98918628565,-74204.03649855095,-128723.85278032457,-74531.26603737666,-75190.62014706376,-187500.02235174447
1741731685.3495965,-76087.19332065503,-83451.55667681179,-75891.2579287598,-75081.83420679977,-127767.77926299325,-74594.16384627389,-76466.72594150614,-187500.02235174447
1741731685.349604,-76651.2395919847,-84239.41096537244,-74649.66322775642,-76540.93373309777,-126428.66390093135,-74871.68310543097,-76653.9888565527,-187500.02235174447
1741731685.3496113,-76460.19923212519,-83676.97401964356,-75129.06344283384,-75873.60005064012,-127233.0808321334,-74862.74240764885,-75434.03064418204,-187500.02235174447
1741731685.349619,-75878.33862046464,-82822.48918086162,-76440.01560688205,-74333.9448373252,-128686.86064325103,-74588.68766888234,-75099.223863986,-187500.02235174447
1741731685.3496263,-76020.31690124475,-83294.06628537968,-76149.30881849633,-74819.71529957239,-128097.04281056438,-74578.852901322,-76310.62135823029,-187500.02235174447
1741731685.3496387,-76639.54962963458,-84225.39642159897,-74819.24591293883,-76437.22163882514,-126584.94729816286,-74861.49070995935,-76837.34021631959,-187500.02235174447
1741731685.349646,-76592.36509708942,-83886.02988553404,-74950.56241161376,-76171.74996992946,-126990.83262572678,-74914.55375129626,-75716.44493537485,-187500.02235174447
1741731685.3496544,-75937.90601943803,-82888.42682700478,-76276.69141014712,-74498.90071140537,-128530.17491461933,-74618.59430296354,-75010.5097902429,-187500.02235174447
1741731685.349662,-75901.29386202025,-83098.62263186248,-76318.265654834,-74550.71205505278,-128325.07530749743,-74527.13096465242,-76039.11471833166,-187500.02235174447
1741731685.3496697,-76530.69663413723,-84107.44626610831,-74982.36894397366,-76214.8441332393,-126742.8176692507,-74797.8552934951,-76854.52870780573,-187500.02235174447
1741731685.349677,-76644.6905308593,-84023.64957614537,-74762.67364772245,-76377.11779798481,-126737.31914011469,-74921.21457114394,-75924.15969659803,-187500.02235174447
1741731685.3496847,-76032.11862231715,-83007.27105227365,-76069.3566285797,-74735.60568518707,-128320.51555162854,-74666.874070987,-74991.04142082232,-187500.02235174447
1741731685.3496923,-75864.74875983581,-82980.71717986075,-76483.66856380326,-74379.92237566976,-128556.90760098788,-74525.72280475174,-75841.41353862447,-187500.02235174447
1741731685.3497,-76397.16731276123,-83948.86063919791,-75177.67848702414,-75930.26172283432,-126947.00085484993,-74724.56392342615,-76801.95740484683,-187500.02235174447
1741731685.3497071,-76667.19873752579,-84131.34028093104,-74622.12587858748,-76511.74235483914,-126542.34487323105,-74917.25831237534,-76116.98819601396,-187500.02235174447
1741731685.3497148,-76161.49051922448,-83178.06073165665,-75846.53208810474,-75027.92179917358,-128088.66090639365,-74735.33746425361,-75058.49898558843,-187500.02235174447
1741731685.3497224,-75824.47091632735,-82872.37827448586,-76560.0221228626,-74251.51160377402,-128696.13661719998,-74519.97840642672,-75601.4452101523,-187500.02235174447
1741731685.3497295,-76312.32009080889,-83804.55777699445,-75451.82263276847,-75653.99416136673,-127251.76689049804,-74686.38714389649,-76768.47449165279,-187500.02235174447
1741731685.3497372,-76719.18889512884,-84237.15343918245,-74607.79841039162,-76617.55551309056,-126460.8951164359,-74923.69561477848,-76394.75332436006,-187500.02235174447
1741731685.3497443,-76264.8449855858,-83345.74351856035,-75593.68915482631,-75328.26218941953,-127781.59264106664,-74772.30724958268,-75153.22567859002,-187500.02235174447
1741731685.349753,-75794.45252352387,-82794.92947994823,-76568.62754447789,-74193.73234435706,-128742.20356252237,-74510.1883423553,-75360.87338457983,-187500.02235174447
1741731685.3497603,-76176.89087115417,-83605.9848792535,-75700.23992064476,-75327.41282313023,-127534.8517340245,-74618.32608203008,-76613.1298676884,-187500.02235174447
1741731685.3497677,-76682.66614468886,-84251.97264575632,-74601.76343938868,-76600.90346347136,-126406.22274949822,-74887.08345736068,-76548.8686023794,-187500.02235174447
1741731685.3497753,-76343.47842257959,-83508.37481121717,-75303.7199740076,-75617.78433534913,-127444.0812997915,-74800.11281968509,-75255.73077866207,-187500.02235174447
1741731685.3497827,-75796.77710494722,-82771.90718315926,-76498.48777037713,-74221.29204527046,-128717.39312617698,-74528.24855187518,-75155.50555652447,-187500.02235174447
1741731685.34979,-76068.7084279905,-83421.91826366405,-75952.88168822309,-75025.39605205013,-127845.20570578644,-74581.93744205683,-76443.05544412798,-187500.02235174447
1741731685.3497975,-76656.82752809853,-84250.40802364446,-74693.24912944426,-76532.08244229347,-126466.48305254974,-74868.7773786518,-76717.3113485946,-187500.02235174447
1741731685.3498096,-76510.62476761636,-83742.97872102007,-75116.45705896105,-75959.58721155969,-127198.48033171658,-74879.61797471262,-75536.33457855399,-187500.02235174447
1741731685.3498173,-75882.00430655532,-82830.53580886553,-76415.67455717022,-74361.52688998306,-128650.91903816689,-74579.76932284467,-75077.3191544198,-187500.02235174447
1741731685.3498247,-75966.56095582974,-83233.51540965027,-76179.2825078109,-74740.41131024496,-128122.90377889917,-74539.84910724749,-76224.50008684398,-187500.02235174447
1741731685.349832,-76566.10179735444,-84167.97479009329,-74814.55204660322,-76356.73300704158,-126559.89099262847,-74808.74059304483,-76776.47641616779,-187500.02235174447
1741731685.3498392,-76537.87154410739,-83872.48472839412,-74847.02913129677,-76169.1795193171,-126861.05839741927,-74872.71128567592,-75661.75021669272,-187500.02235174447
1741731685.3498473,-75932.69806297995,-82902.4190190338,-76210.35143260377,-74526.32630185202,-128462.82910857549,-74617.32025352959,-74960.26306870735,-187500.02235174447
1741731685.3498669,-75883.77009436728,-83072.06875944958,-76351.21212616112,-74498.1854555828,-128368.12476731835,-74525.02990067362,-75985.22466244992,-187500.02235174447
1741731685.3498743,-76519.78898284305,-84094.95164095779,-75035.52139228838,-76165.49148148198,-126792.30443147475,-74796.93887197244,-76871.40427486948,-187500.02235174447
1741731685.3498816,-76646.23280122671,-84051.09751833648,-74720.9876443133,-76405.63862390979,-126673.01317131678,-74922.19804789998,-75957.68731328099,-187500.02235174447
1741731685.3498893,-76080.62190778517,-83064.58092505705,-76043.27214280036,-74810.10404945661,-128287.81494949044,-74702.70391734886,-75026.69245322853,-187500.02235174447
1741731685.349897,-75849.34840790612,-82954.52093535912,-76505.79679081403,-74337.2975989935,-128580.55574662158,-74524.47110706224,-75782.136712329,-187500.02235174447
1741731685.3499043,-76379.35297243035,-83921.74797317362,-75237.5588104199,-75866.89452730352,-126999.63921304217,-74719.66889139044,-76789.10515178504,-187500.02235174447
1741731685.3499117,-76690.93629013732,-84165.98548483675,-74622.23763730975,-76545.82876513348,-126512.03590774965,-74927.60717005815,-76183.2834700684,-187500.02235174447
1741731685.3499193,-76184.3340020578,-83212.32595590664,-75794.18430259041,-75089.54555863686,-128008.55225426583,-74745.86513589206,-75064.53395659137,-187500.02235174447
1741731685.3499432,-75792.2397008228,-82831.4522303882,-76548.6674366793,-74211.9713678326,-128678.38933210247,-74507.6849469763,-75499.40949671382,-187500.02235174447
1741731685.3499508,-76261.15694775069,-83744.74450883204,-75483.47270291719,-75564.1848521453,-127279.88538502282,-74668.63985879897,-76692.43385701584,-187500.02235174447
1741731685.3499584,-76690.57866222605,-84227.60924430004,-74571.56623262957,-76599.91998671532,-126406.87095008742,-74918.37589959812,-76379.21886196361,-187500.02235174447
1741731685.349966,-76298.01497435749,-83396.32551626272,-75532.5794854855,-75400.21245482117,-127711.81049487717,-74808.85235176711,-75173.02932417743,-187500.02235174447
1741731685.3499737,-75826.43786983941,-82817.99648022611,-76582.19505336226,-74215.25707426752,-128765.44937675589,-74555.2494591772,-75348.35640768486,-187500.02235174447
1741731685.349982,-76187.23972883698,-83601.1345507067,-75784.84127340809,-75285.30213657643,-127625.4210025574,-74654.29003885866,-76622.04821372607,-187500.02235174447
1741731685.3499897,-76715.858485205,-84292.94339334291,-74646.13165213248,-76617.15318169036,-126435.28001729013,-74925.66256829054,-76634.31932143203,-187500.02235174447
1741731685.3499973,-76436.39462428029,-83608.86825428823,-75309.33026186589,-75730.50418263725,-127430.40203218485,-74869.31382051871,-75382.97925984612,-187500.02235174447
1741731685.35001,-75882.11606527759,-82836.14609672381,-76549.69561692425,-74291.05183971547,-128761.47076624284,-74592.28629973964,-75224.90772305819,-187500.02235174447
1741731685.3500173,-76091.84248350174,-83416.41973452804,-76051.67639871554,-74992.71780165647,-127935.93143653053,-74606.92669235787,-76459.32751409143,-187500.02235174447
1741731685.3500247,-76654.01120829716,-84246.87644802051,-74736.76797589875,-76509.84245656044,-126478.39653234441,-74870.20789029692,-76746.8603547645,-187500.02235174447
1741731685.350032,-76475.3984183548,-83739.22362795158,-75024.83725843874,-75976.01574373433,-127068.1920132866,-74860.84250937015,-75484.88086281787,-187500.02235174447
1741731685.3500404,-75898.45519047441,-82852.08289052044,-76385.11972249982,-74397.64730902282,-128614.88802610493,-74606.30084351312,-75037.68951150055,-187500.02235174447
1741731685.350048,-75971.72420879891,-83222.4959996338,-76242.4932411305,-74704.46970516082,-128191.34482042132,-74563.0502179921,-76202.01423192194,-187500.02235174447
1741731685.3500555,-76595.94137620227,-84190.99708688226,-74893.40900104154,-76351.94973372815,-126632.40005164148,-74839.27307597078,-76849.56662053664,-187500.02235174447
1741731685.3500628,-76643.52824014763,-83976.75561627813,-74895.3312510647,-76286.88380561874,-126886.96406924297,-74937.26312366285,-75836.49615484431,-187500.02235174447
1741731685.3500705,-76026.41892748105,-82983.0417612841,-76248.66232260017,-74629.85958216901,-128478.38592271638,-74668.70691403233,-75062.1646716791,-187500.02235174447
1741731685.3500776,-75908.24525454584,-83071.59937281601,-76431.07490909993,-74482.36042050844,-128434.44239311725,-74534.8423164895,-75989.3820869186,-187500.02235174447
1741731685.350086,-76487.06602896047,-84058.71946319574,-75083.08590448927,-76099.48678010545,-126812.10807706215,-74767.0992931246,-76848.49373680279,-187500.02235174447
1741731685.3500936,-76649.45145242829,-84073.2480970917,-74695.46195214534,-76430.96315037765,-126613.64693804347,-74910.88806520558,-75983.57063336023,-187500.02235174447
1741731685.3501008,-76095.84344575924,-83088.96667825778,-75991.59490961969,-74857.13211979058,-128215.0600212884,-74699.61937661402,-75012.58850247723,-187500.02235174447
1741731685.3501084,-75841.74881479131,-82929.53168505809,-76528.8637910919,-74306.29572943399,-128602.21458699879,-74516.62564475843,-75724.60332210104,-187500.02235174447
1741731685.3501155,-76349.20046916015,-83881.33601919842,-75285.61506099881,-75799.74988695978,-127039.24650421698,-74695.95369052335,-76767.33455268557,-187500.02235174447
1741731685.3501232,-76676.8993946194,-84171.4616622283,-74591.97337531726,-76551.12612856939,-126458.347017568,-74909.30109134926,-76203.84707496729,-187500.02235174447
1741731685.3501308,-76225.10358394428,-83268.16061355599,-75755.5828399161,-75166.92729794113,-127958.01496005237,-74763.76888320076,-75107.94104432357,-187500.02235174447
1741731685.350138,-75855.0481027422,-82875.84279487644,-76617.1308299459,-74248.44941478365,-128752.41830973844,-74540.31849388104,-75555.82529971901,-187500.02235174447
1741731685.3501456,-76288.26961377497,-83750.69007285715,-75593.13036121492,-75536.89337216537,-127384.08921767345,-74670.6738675444,-76752.78356704516,-187500.02235174447
1741731685.3501532,-76707.47658103427,-84249.46925037734,-74597.44955270881,-76617.2872921571,-126405.6863076313,-74901.83560870119,-76450.92325817625,-187500.02235174447
1741731685.3501606,-76294.03636384444,-83411.6364612146,-75459.9139642613,-75444.93829547624,-127611.60762448402,-74778.58808977462,-75164.75917872897,-187500.02235174447
1741731685.350168,-75828.71774777386,-82809.9498522222,-76575.44482653675,-74217.62635917978,-128760.46493774235,-74538.08331943552,-75304.94931995265,-187500.02235174447
1741731685.3501804,-76165.06679833733,-83555.44758504005,-75840.34065489062,-75218.17984797715,-127682.39559917398,-74616.62734945148,-76592.34274534497,-187500.02235174447
1741731685.3501887,-76676.31824926355,-84259.30401793767,-74631.93829440336,-76577.47883528219,-126405.52984542011,-74872.73363742037,-76620.79651603657,-187500.02235174447
1741731685.3501961,-76436.97576963613,-83627.75547835296,-75236.68709238614,-75776.14644481498,-127343.54315323153,-74842.5140789168,-75389.1930448047,-187500.02235174447
1741731685.350204,-75860.77014932277,-82815.96247148067,-76496.47611337616,-74288.30257514746,-128714.04036450868,-74560.81504354656,-75152.19749834508,-187500.02235174447
1741731685.3502114,-76058.56073600778,-83366.95532404844,-76084.44405608703,-74922.75684151135,-127984.34531502072,-74575.27662220914,-76398.21784475063,-187500.02235174447
1741731685.3502188,-76613.9792339777,-84213.66175575994,-74735.4939264648,-76458.7463687356,-126476.13900615442,-74829.99710202184,-76736.48914533724,-187500.02235174447
1741731685.3502264,-76516.99501478614,-83795.39356176776,-74997.32226101425,-76046.08846260172,-127037.30190244937,-74868.86678562961,-75573.41612260534,-187500.02235174447
1741731685.3502336,-75922.75153669734,-82875.2169460317,-76363.19266118917,-74437.09813798644,-128591.64221187143,-74601.31640449958,-75056.91201173211,-187500.02235174447
1741731685.350241,-75905.67480393348,-83145.44953649635,-76244.86252604277,-74612.02289009368,-128196.84334955733,-74508.64607198788,-76098.0562684603,-187500.02235174447
1741731685.3502486,-76512.39055542834,-84114.19649293381,-74876.68989618897,-76253.82557556934,-126607.25433912926,-74776.33056358463,-76769.61443062001,-187500.02235174447
1741731685.350256,-76577.68000098229,-83944.03266239556,-74786.45590382289,-76268.1530437652,-126761.74959680434,-74885.4741317599,-75772.14548255748,-187500.02235174447
1741731685.3502634,-75997.62988062261,-82965.5850488645,-76153.22037377601,-74639.82846019608,-128393.8516251864,-74648.1656608779,-74988.78389463233,-187500.02235174447
1741731685.3502707,-75888.44160895844,-83031.63445372993,-76445.2906185735,-74438.08161474248,-128478.36357097192,-74527.33213035252,-75932.38513855757,-187500.02235174447
1741731685.3502784,-76479.82406375695,-84037.32884375201,-75138.85350690526,-76059.34304706372,-126882.87370000765,-74764.28297332322,-76874.80174002668,-187500.02235174447
1741731685.3502865,-76656.17932750932,-84092.09061766752,-74669.06454194362,-76465.11661590537,-126580.34283880507,-74907.84822795966,-76038.8464973982,-187500.02235174447
1741731685.350294,-76104.962957497,-83107.1162947555,-75930.28407457878,-74911.80448672826,-128152.78806123591,-74698.79236206917,-75009.74983093141,-187500.02235174447
1741731685.3503013,-75840.07243395716,-82911.53853077156,-76551.01436984711,-74291.49887460457,-128643.58766598556,-74514.16695286834,-75688.19233038335,-187500.02235174447
1741731685.350309,-76333.15191664123,-83852.92695199573,-75348.31170419595,-75745.59161014458,-127110.32505158485,-74682.76616129473,-76767.96040153032,-187500.02235174447
1741731685.3503168,-76679.53690046513,-84186.9737728803,-74590.2075875053,-76568.18050958878,-126441.87378190445,-74900.94153892297,-76254.94316279211,-187500.02235174447
1741731685.3503242,-76203.2882813559,-83268.0041513448,-75670.80267319712,-75199.8514175238,-127859.33200828219,-74741.21597304536,-75074.94986950755,-187500.02235174447
1741731685.3503315,-75783.70133444088,-82807.98289871012,-76559.95506762923,-74193.24060597904,-128707.08897198307,-74502.00760388466,-75414.15994336129,-187500.02235174447
1741731685.3503392,-76219.91797923064,-83678.8515661778,-75605.73674508772,-75445.78766176554,-127413.68292733228,-74642.73418697527,-76664.51652819116,-187500.02235174447
1741731685.3503623,-76687.87410114695,-84246.67528232042,-74585.46901768078,-76610.64882405387,-126395.56096739304,-74900.33804182269,-76471.8444909864,-187500.02235174447
1741731685.35037,-76321.46195429111,-83457.47988909244,-75411.16480960426,-75518.16261031182,-127562.99258029374,-74801.87860749706,-75210.42379265116,-187500.02235174447
1741731685.350378,-75803.61673875056,-82784.55827052097,-76535.6140179174,-74209.69148989815,-128733.21816125134,-74532.62949378842,-75231.92617081717,-187500.02235174447
1741731685.3503857,-76101.18551268405,-83483.56437487178,-75850.73421606234,-75129.48812597849,-127712.41399197746,-74596.44372420832,-76494.08447671944,-187500.02235174447
1741731685.350393,-76673.88190911793,-84259.25931444876,-74649.50676554523,-76568.26991656661,-126428.41803174235,-74886.70347770494,-76654.36883620845,-187500.02235174447
1741731685.3504012,-76460.46745305866,-83665.17229857115,-75185.5463010724,-75842.21820142487,-127285.83094904793,-74864.28467801627,-75432.86835347037,-187500.02235174447
1741731685.3504088,-75856.99270450983,-82810.21807315566,-76455.66182800077,-74306.20632245617,-128682.63616354897,-74571.96856402977,-75103.73891636598,-187500.02235174447
1741731685.3504162,-76006.01178479336,-83302.09056163914,-76095.5081695924,-74843.05052078373,-128017.9176351926,-74564.21250870377,-76305.48045700556,-187500.02235174447
1741731685.3504236,-76620.37183289192,-84214.55582553815,-74773.33542982762,-76444.46360402866,-126528.9114748134,-74852.79588136624,-76778.10809351303,-187500.02235174447
1741731685.350431,-76563.35253278643,-83847.47312634863,-74966.00746703238,-76124.78895482885,-127009.6304428137,-74905.12131513612,-75653.36831252198,-187500.02235174447
1741731685.8304806,-75967.4773773524,-82908.58810050346,-76338.4716318216,-74500.71120270625,-128588.71413334778,-74639.44848054033,-75073.7205235625,-187500.02235174447
1741731685.83051,-75948.38898758758,-83154.83726916758,-76326.51344853801,-74608.51366621419,-128310.50197011257,-74548.7898050296,-76129.0134345309,-187500.02235174447
1741731685.830519,-76535.52461093958,-84119.71737381427,-74947.83549879021,-76238.46992712855,-126688.72644766886,-74795.84363649412,-76829.1818295934,-187500.02235174447
1741731685.8305364,-76620.19301893629,-83990.7254565627,-74772.86604319407,-76330.11207939532,-126740.78366050526,-74908.49642854887,-75849.84014628413,-187500.02235174447
1741731685.8305447,-76007.91168307206,-82980.5383659051,-76094.12236143618,-74683.19084443938,-128332.2949209565,-74655.49703305925,-74958.11730123965,-187500.02235174447
1741731685.8305523,-75858.37851266605,-82987.13213051941,-76448.41986279725,-74387.92430018476,-128498.54719621506,-74521.96771168325,-75838.93249498993,-187500.02235174447
1741731685.83056,-76457.96405767967,-84004.96351778074,-75177.7455422575,-76002.56961614724,-126936.24966576693,-74764.5511942567,-76855.13220490601,-187500.02235174447
1741731685.8305676,-76715.14322938243,-84153.98259806426,-74686.4318473854,-76532.95416032722,-126595.05028665667,-74949.08719647971,-76154.94145809907,-187500.02235174447
1741731685.830576,-76111.48966687795,-83126.33879498707,-75860.5019283893,-74959.01137101787,-128076.14392949868,-74706.21314122833,-74996.8975778696,-187500.02235174447
1741731685.8305836,-75780.61679370604,-82850.74178585313,-76513.64225311784,-74226.58940870636,-128622.48761921974,-74497.15727533786,-75552.80781421755,-187500.02235174447
1741731685.8305912,-76304.6087389718,-83817.29827133397,-75392.81402740646,-75677.79876921163,-127177.49204367305,-74691.10336197655,-76736.33268312606,-187500.02235174447
1741731685.8305988,-76690.28808954812,-84213.41588657092,-74580.93161355634,-76587.96180343172,-126438.25279930269,-74925.05907119025,-76311.13544835275,-187500.02235174447
1741731685.8306062,-76239.31929341785,-83320.37428860359,-75615.07977427004,-75272.58399398136,-127812.2145309704,-74780.55504328669,-75108.99157631297,-187500.02235174447
1741731685.8306143,-75830.7964600082,-82838.13540198034,-76595.15906514633,-74217.96163534661,-128768.22099306835,-74553.05898822058,-75429.4038330798,-187500.02235174447
1741731685.8306217,-76248.41645341116,-83682.69606622412,-75708.17478992639,-75412.72943171614,-127533.66709156836,-74678.20640542584,-76706.91778742288,-187500.02235174447
1741731685.830629,-76726.00617718771,-84284.67324789445,-74631.84888742553,-76634.90046678788,-126434.40829925636,-74930.66935904854,-76572.38263754638,-187500.02235174447
1741731685.8306365,-76384.06919051042,-83527.217331793,-75393.41752450676,-75611.83877132402,-127534.13647820194,-74840.5694771492,-75296.76858148201,-187500.02235174447
1741731685.8306441,-75849.9519050064,-82815.98482322512,-76564.09014035347,-74247.93532466119,-128764.42119651094,-74562.53612786962,-75253.42854898317,-187500.02235174447
1741731685.8306515,-76089.47319858948,-83452.74131926791,-75920.80693492973,-75067.14911069264,-127786.89000450255,-74591.77220961716,-76465.6977612612,-187500.02235174447
1741731685.8306592,-76649.1385280059,-84242.54020959619,-74660.3250098616,-76530.18254401477,-126424.90880786287,-74868.1738815515,-76657.05104554309,-187500.02235174447
1741731685.8306665,-76462.25559261508,-83689.3568860718,-75114.66891940462,-75879.90324257652,-127197.38509623827,-74859.3225907472,-75436.19876339422,-187500.02235174447
1741731685.830675,-75853.25996318579,-82806.21711089816,-76407.47146695513,-74311.54838938099,-128637.61975021599,-74570.850976807,-75042.27161911388,-187500.02235174447
1741731685.8306828,-75984.50940662735,-83260.8515931191,-76134.221390989,-74772.82133970516,-128069.99719977347,-74558.75868305667,-76244.16962196465,-187500.02235174447
1741731685.8306901,-76595.15906514633,-84188.65015371444,-74790.14394165803,-76387.89133881227,-126541.80843136412,-74838.42370968148,-76768.38508467497,-187500.02235174447
1741731685.8306975,-76599.18237914829,-83896.6022606614,-74934.46915560594,-76176.39913277616,-126965.95513414803,-74924.25440838985,-75713.65096731794,-187500.02235174447
1741731685.8307164,-75985.69404908348,-82926.78242049008,-76297.41147725719,-74527.33213035252,-128543.67536827033,-74648.92562018939,-75049.42417733958,-187500.02235174447
1741731685.830724,-75942.175202629,-83125.44472520886,-76367.1712717022,-74552.9919329872,-128364.07910157194,-74551.58377308653,-76073.98343968195,-187500.02235174447
1741731685.8307314,-76542.38659648735,-84116.31990865707,-75014.44369726702,-76198.21443536454,-126755.58051533467,-74804.53846508723,-76866.01750445575,-187500.02235174447
1741731685.8307388,-76650.05494952858,-84038.3346722525,-74760.03614187671,-76377.05074275145,-126714.11802937009,-74925.19318165698,-75922.50566750833,-187500.02235174447
1741731685.8307464,-76076.64329727212,-83050.72284349476,-76094.47998934746,-74765.22174659035,-128332.78665933451,-74696.3336701791,-75029.3076073298,-187500.02235174447
1741731685.830754,-75837.47963160035,-82957.02433073812,-76471.6433252863,-74333.00606405808,-128529.25849309666,-74508.48960977669,-75775.45354073687,-187500.02235174447
1741731685.8307614,-76418.7367461606,-83964.48450857216,-75218.22455146606,-75919.0187953733,-126978.717980232,-74739.91957186694,-76815.83783815359,-187500.02235174447
1741731685.8307688,-76711.54459852513,-84171.32755176158,-74658.49216681626,-76538.94442784124,-126555.75591990423,-74939.00655973036,-76182.21058633454,-187500.02235174447
1741731685.8307765,-76193.98995566249,-83209.30847040516,-75858.37851266605,-75051.12290991818,-128075.49572890947,-74749.35200802708,-75089.94789003704,-187500.02235174447
1741731685.8307848,-75833.47866934285,-82875.28400126506,-76575.6236404924,-74232.08793784237,-128692.26976540922,-74520.64895876039,-75587.1400937009,-187500.02235174447
1741731685.8307922,-76272.93631707864,-83768.05737829892,-75438.14336516183,-75586.9389280008,-127216.6746517032,-74660.43676858387,-76693.97612738326,-187500.02235174447
1741731685.8307996,-76687.58352846904,-84215.47224706081,-74568.50404363919,-76575.55658525904,-126405.70865937576,-74908.45172505996,-76330.40265207323,-187500.02235174447
1741731685.8308072,-76272.28811648944,-83358.61812336661,-75559.55804104306,-75324.23887541758,-127742.96882664786,-74785.11479915558,-75131.72330042403,-187500.02235174447
1741731685.8308144,-75812.95976793287,-82809.65927954427,-76563.08431185297,-74177.75084707151,-128740.72834738831,-74532.18245889932,-75348.9375530407,-187500.02235174447
1741731685.830822,-76185.45158928056,-83609.29293743288,-75710.119391694,-75290.75596222353,-127548.32983593106,-74635.24635258273,-76602.04340243858,-187500.02235174447
1741731685.8308291,-76703.83324668804,-84272.31273321065,-74603.73039290076,-76588.58765227647,-126405.30632797556,-74910.44103031648,-76566.74999794364,-187500.02235174447
1741731685.8308368,-76396.13913251628,-83555.4252332956,-75304.85991297483,-75640.62781818245,-127440.54972416756,-74841.55295390522,-75305.66457577523,-187500.02235174447
1741731685.830844,-75843.31343690318,-82806.5970905539,-76512.83759031745,-74222.78961214896,-128729.6865856274,-74568.57109887256,-75183.62405104925,-187500.02235174447
1741731685.8308637,-76092.9600707245,-83435.21755161496,-75982.27423218182,-74996.8975778696,-127871.69252296598,-74611.48644822674,-76451.70556923217,-187500.02235174447
1741731685.830871,-76680.78859815463,-84271.53042215473,-74714.77385935473,-76521.44301193274,-126478.88827072243,-74897.2311493434,-76739.86425874999,-187500.02235174447
1741731685.8308787,-76522.15826775531,-83761.91064857371,-75094.23942497247,-75956.5250225693,-127163.43279641066,-74897.09703887666,-75530.90310465136,-187500.02235174447
1741731685.830886,-75888.84394035864,-82841.84579155991,-76391.06528652493,-74339.91275309477,-128626.1533053104,-74599.9082445989,-75041.33284584676,-187500.02235174447
1741731685.8308988,-75990.0302875078,-83250.1004040361,-76201.25427261046,-74712.56103665364,-128152.72100600255,-74574.8519390645,-76224.92476998863,-187500.02235174447
1741731685.8309064,-76607.74309727468,-84199.37899105299,-74855.3663319786,-76356.8224140194,-126602.20284488235,-74853.35467497763,-76825.35968129155,-187500.02235174447
1741731685.830914,-76600.90346347136,-83925.92774938677,-74880.19912006846,-76212.51955181595,-126887.18758668752,-74927.54011482479,-75740.83068857559,-187500.02235174447
1741731685.8309216,-75984.12942697162,-82944.57440907651,-76236.57002884985,-74555.8529562775,-128480.44228320627,-74662.64959128495,-75007.7605256749,-187500.02235174447
1741731685.8309293,-75896.24236777335,-83079.78011128666,-76379.75530383055,-74477.1748157948,-128393.51634901958,-74548.7898050296,-75975.61341233413,-187500.02235174447
1741731685.8309367,-76504.61214835789,-84082.18879487381,-75052.35225586322,-76127.62762637468,-126799.23347225589,-74804.78433427625,-76836.84847794157,-187500.02235174447
1741731685.830944,-76699.34054605252,-84097.9467747148,-74767.12164486905,-76440.52969700453,-126710.22882583486,-74970.81309209026,-76023.22262802394,-187500.02235174447
1741731685.8309517,-76097.78804752685,-83081.38943688745,-76047.83189866923,-74816.56370360419,-128277.91312669673,-74725.16742052644,-75028.59235150724,-187500.02235174447
1741731685.830959,-75855.15986146449,-82957.85134528296,-76532.93180858277,-74314.29765394899,-128607.66841264587,-74547.78397652913,-75758.5779736731,-187500.02235174447
1741731685.8309667,-76413.72995540261,-83952.39221482184,-75310.93958746667,-75866.82747207016,-127074.56226045637,-74762.15955759997,-76842.36935882203,-187500.02235174447
1741731685.830974,-76724.37449984247,-84205.30220333365,-74666.53879482017,-76569.58866948947,-126544.8259168656,-74964.01816177585,-76251.746863335,-187500.02235174447
1741731685.8309815,-76212.67601402712,-83250.25686624729,-75808.84704695309,-75117.66405316163,-128016.37536482519,-74777.60461301859,-75105.61646290022,-187500.02235174447
1741731685.830989,-75818.83827672462,-82859.5036696796,-76586.59834701996,-74212.8654376108,-128720.67883261191,-74537.09984267948,-75525.33752028197,-187500.02235174447
1741731685.830997,-76259.23469772753,-83745.45976465462,-75518.18496205629,-75531.327787796,-127313.32359472795,-74675.77006528022,-76692.27739480465,-187500.02235174447
1741731685.8310046,-76720.15002014041,-84259.41577665994,-74602.81397137808,-76615.3873938784,-126433.46952598925,-74939.5430015973,-76433.91358064575,-187500.02235174447
1741731685.831012,-76337.82343123239,-83433.89879869208,-75539.03913963308,-75432.53307730354,-127710.0000035763,-74827.62781710956,-75227.47817367056,-187500.02235174447
1741731685.8310192,-75822.41455583746,-82807.8934917323,-76566.34766654344,-74188.25616696551,-128745.95865559086,-74544.49827009419,-75318.15920092574,-187500.02235174447
1741731685.8310268,-76162.6751616806,-83567.98691367947,-75775.36413375904,-75225.10888875829,-127615.18390359687,-74630.70894845831,-76569.7227799562,-187500.02235174447
1741731685.8310344,-76705.68844147783,-84278.07948328013,-74624.53986698865,-76587.2241958647,-126405.79806635357,-74911.46921056142,-76615.76737353414,-187500.02235174447
1741731685.8310416,-76460.48980480312,-83630.34828070979,-75277.9707643951,-75745.70336886685,-127392.13584567736,-74875.5723089662,-75400.79360017701,-187500.02235174447
1741731685.8310492,-75891.07911480416,-82842.8069165715,-76516.10094500791,-74276.41144709724,-128727.65257688197,-74591.36987821697,-75205.90874027119,-187500.02235174447
1741731685.8310564,-76099.48678010545,-83417.20204558398,-76050.29059055932,-74954.87629829363,-127940.8488203107,-74609.02775633667,-76445.91646741825,-187500.02235174447
1741731685.8310685,-76702.87212167647,-84282.9968670603,-74760.30436281019,-76516.2127037302,-126500.83768377754,-74892.1796550965,-76814.07205034162,-187500.02235174447
1741731685.8310769,-76586.88891969787,-83827.55772203895,-75064.5116048469,-76049.35181729219,-127098.21040609007,-74909.39049832708,-75641.63364668294,-187500.02235174447
1741731685.831084,-75932.98863565786,-82872.13240529686,-76359.72814079859,-74400.12835265737,-128567.88230751542,-74597.71777364227,-75068.13258744868,-187500.02235174447
1741731685.8310916,-75968.37144713062,-83203.3852581245,-76212.9442349606,-74659.18507089437,-128147.8483257113,-74535.49051707871,-76167.5254902274,-187500.02235174447
1741731685.8311,-76555.30590478252,-84147.34412996104,-74826.39847116453,-76295.69039293414,-126542.81425986461,-74794.65899403799,-76767.22279396329,-187500.02235174447
1741731685.8311074,-76588.6323557654,-83934.9131506578,-74782.65610726549,-76248.21528771106,-126757.12278570209,-74897.18644585449,-75712.0192899727,-187500.02235174447
1741731685.8311148,-75976.932165257,-82942.94273173127,-76149.80055687435,-74577.19887223231,-128383.21219482568,-74645.19287886535,-74936.74903354037,-187500.02235174447
1741731685.8311229,-75868.2132802264,-83034.13784910893,-76384.71739109962,-74407.75029751663,-128405.1616078808,-74527.01920593015,-75897.5611206962,-187500.02235174447
1741731685.83113,-76459.01458966907,-84034.26665476164,-75064.35514263573,-76038.55592472028,-126806.40838222604,-74772.37430481605,-76799.99045133477,-187500.02235174447
1741731685.8311374,-76647.57390589404,-84077.07024539355,-74672.64082105647,-76415.47339147012,-126595.13969363448,-74931.85400150466,-75984.2858891828,-187500.02235174447
1741731685.831145,-76098.23508241595,-83100.12019874099,-75964.3257813842,-74850.09132028715,-128194.33995417834,-74725.882676349,-75004.54187447332,-187500.02235174447
1741731685.8311527,-75822.70512851539,-82922.55794078803,-76526.20393350172,-74268.4765778156,-128616.27383426117,-74535.84814498998,-75684.99603092624,-187500.02235174447
1741731685.83116,-76358.90112625374,-83898.77037987356,-75339.41570990274,-75782.82961640712,-127110.88384519624,-74738.22083928833,-76791.96617507531,-187500.02235174447
1741731685.8311677,-76716.59609277203,-84215.8298749721,-74650.37848357898,-76576.16008235933,-126517.57914037457,-74960.71010359647,-76294.79632315593,-187500.02235174447
1741731685.8311749,-76195.19694986308,-83259.01875007377,-75725.9220750239,-75145.80489943086,-127924.15206720258,-74768.3509908141,-75080.78367481037,-187500.02235174447
1741731685.8311825,-75798.20761659236,-82843.56687588297,-76592.99094593417,-74190.71485885559,-128744.639902668,-74541.54783982609,-75465.83717654196,-187500.02235174447
1741731685.8311896,-76257.24539247101,-83735.98262500556,-75625.31687323056,-75489.93235706477,-127437.576942155,-74695.77487656771,-76715.0091189157,-187500.02235174447
1741731685.831198,-76716.81961021658,-84269.138785498,-74639.96257066281,-76611.8781699989,-126458.63759024593,-74944.97447549993,-76493.61509008588,-187500.02235174447
1741731685.8312056,-76335.99058818705,-83455.69174953601,-75492.43575244377,-75468.80995855451,-127656.89225875048,-74832.34403518964,-75236.46357494159,-187500.02235174447
1741731685.831213,-75830.88586698602,-82816.16363718077,-76593.81796047902,-74191.96655654509,-128799.62519402805,-74567.60997386098,-75301.75302049554,-187500.02235174447
1741731685.8312204,-76120.56447512681,-83523.68575616906,-75854.37755040855,-75139.05467260536,-127719.92417811444,-74625.32217804459,-76527.09800327993,-187500.02235174447
1741731685.831228,-76655.82169959805,-84249.60336084406,-74647.85273645553,-76529.73550912566,-126434.96709286775,-74895.3759545536,-76606.35728911844,-187500.02235174447
1741731685.83124,-76425.24110379709,-83626.66024287466,-75211.4072694072,-75748.36322645703,-127329.01451933559,-74864.30702976073,-75375.4914254536,-187500.02235174447
1741731685.8312476,-75866.49219590332,-82825.1490384518,-76492.74337205212,-74257.09953988786,-128741.86828635554,-74597.02486956416,-75135.74661442598,-187500.02235174447
1741731685.831255,-76040.00878810987,-83354.3712919201,-76103.5100941074,-74855.61220116762,-128042.5716093268,-74601.96460508878,-76358.05175996444,-187500.02235174447
1741731685.8312624,-76608.70422228625,-84213.7288109933,-74761.6454674775,-76412.29944375747,-126532.0630707816,-74862.1165588041,-76731.54940981262,-187500.02235174447
1741731685.8312697,-76546.99105584515,-83823.62381501483,-75010.46508675397,-76040.20995380997,-127074.45050173409,-74913.12323965112,-75614.61038763648,-187500.02235174447
1741731685.8312771,-75920.53871399627,-82876.15571929881,-76348.1275854263,-74391.94761418672,-128613.68103190436,-74625.72450944479,-75027.74298521793,-187500.02235174447
1741731685.8312852,-75899.08103931916,-83142.20853355034,-76273.67392464566,-74546.12994743943,-128278.56132728593,-74538.99974095818,-76060.37122730866,-187500.02235174447
1741731685.8312926,-76520.14661075432,-84122.95837676029,-74929.7305857814,-76209.97145294804,-126701.89162515303,-74814.66380532549,-76784.59009940506,-187500.02235174447
1741731685.8313007,-76594.68967851278,-83964.0151219386,-74807.73476454435,-76250.27164820096,-126814.25384452986,-74922.86860023363,-75803.90731142847,-187500.02235174447
1741731685.8313084,-76009.61041565066,-82987.60151715297,-76163.16690005863,-74607.68665166934,-128448.90397177983,-74686.6777165744,-74986.43696146453,-187500.02235174447
1741731685.831316,-75891.66026016,-83049.89582894991,-76505.86384604739,-74376.32374481246,-128597.85599683,-74571.72269484076,-75920.65047271854,-187500.02235174447
1741731685.8313231,-76419.18378104971,-84006.41638117032,-75175.77858874544,-75959.92248772651,-126968.34677080474,-74772.03902864922,-76801.95740484683,-187500.02235174447
1741731685.831342,-76645.15991749286,-84103.22178640625,-74716.31612972214,-76423.56472296295,-126675.51656669576,-74943.92394351053,-76044.63559921212,-187500.02235174447
1741731685.8313496,-76096.89397774864,-83126.96464383182,-75969.55608958675,-74852.6170674106,-128251.94039963966,-74739.04785383318,-75006.68764194104,-187500.02235174447
1741731685.8313572,-75775.16296805894,-82891.48901599515,-76595.51669305762,-74156.87431775026,-128768.10923434606,-74534.17176415584,-75596.43841939431,-187500.02235174447
1741731685.8313646,-76268.04128504293,-83832.36334709685,-75438.97037970668,-75615.10212601449,-127292.6929345957,-74717.21019950035,-76698.46882801877,-187500.02235174447
1741731685.831372,-76650.09965301749,-84193.83575842807,-74695.19373121187,-76491.62578482936,-126635.97633075433,-74956.53032738333,-76261.51457566197,-187500.02235174447
1741731685.8313794,-76201.65660401066,-83299.87773893807,-75785.19890131938,-75136.66303594864,-128075.20515623155,-74813.56856984718,-75103.96243381054,-187500.02235174447
1741731685.8313873,-75761.9307353414,-82829.82055304295,-76715.56791252708,-74083.87352035922,-128985.50230091838,-74572.86263380798,-75403.43110602273,-187500.02235174447
1741731685.8313947,-76164.39624600366,-83677.51046151048,-75803.46027653936,-75315.16406716872,-127735.5480474887,-74702.10042024856,-76632.82175455353,-187500.02235174447
1741731685.831402,-76589.6828877548,-84210.24193885826,-74744.99341785829,-76481.63455505784,-126667.76051136978,-74933.73154803891,-76405.39275472079,-187500.02235174447
1741731685.8314102,-76248.86348830027,-83443.66651101905,-75573.37141911643,-75410.15898110378,-127858.28147629279,-74856.416863968,-75169.85537646478,-187500.02235174447
1741731685.8314223,-75734.25927570573,-82782.05487514197,-76757.05275023612,-74070.99891555296,-129120.21626475052,-74606.05497432411,-75188.31791738486,-187500.02235174447
1741731685.83143,-76007.57640690522,-83467.2028979305,-76135.89777182315,-74969.00260078939,-128177.10675920329,-74671.2773646447,-76441.84844992739,-187500.02235174447
1741731685.8314376,-76565.45359676523,-84232.25840714674,-74936.52551609582,-76431.23137131112,-126886.53938609832,-74955.21157446047,-76619.07543171351,-187500.02235174447
1741731685.8314447,-76375.39671366176,-83658.37736825674,-75462.48441487366,-75727.64315934696,-127747.39447205001,-74947.23200168992,-75425.76049873358,-187500.02235174447
1741731685.8314524,-75783.74603792978,-82819.22582617114,-76773.41422717742,-74162.01521897498,-129223.9507107676,-74673.22196641231,-75092.45128541604,-187500.02235174447
1741731685.8314602,-75905.87596963358,-83294.55802375771,-76471.37510435285,-74667.18699540937,-128637.30682579361,-74662.13550116247,-76267.32602922035,-187500.02235174447
1741731685.8314676,-76482.1039416914,-84171.68517967286,-75135.6348557037,-76272.82455835635,-127126.32890061486,-74923.20387640047,-76720.0606131626,-187500.02235174447
1741731686.3106682,-76421.15073456177,-83797.5840327244,-75278.44015102866,-75960.41422610453,-127567.2617634847,-74966.9909437884,-75590.82813153602,-187500.02235174447
1741731686.3107889,-75834.81977401016,-82871.57361168547,-76660.82849035603,-74306.63100560082,-129198.91675697766,-74717.2325512448,-75001.2561680384,-187500.02235174447
1741731686.3108072,-75791.50209325578,-83098.80144581813,-76685.46011274579,-74377.3072215685,-128994.33123997823,-74625.97037863379,-76021.50154370088,-187500.02235174447
1741731686.3108163,-76379.01769626352,-84054.65144570488,-75319.74617478206,-76043.0486253558,-127387.64314504185,-74870.83373914167,-76757.61154384751,-187500.02235174447
1741731686.3108432,-76510.78122982755,-83954.42622356728,-75121.66501541913,-76192.40298180617,-127420.7237268357,-74997.52342671435,-75852.36589340758,-187500.02235174447
1741731686.3108516,-75948.41133933203,-82983.84642408448,-76453.62781925533,-74542.66542704887,-129055.70913025251,-74766.11581636856,-75007.04526985231,-187500.02235174447
1741731686.3108597,-75748.4302816904,-82955.10208071496,-76806.83008513809,-74176.99088776004,-129246.59302790083,-74605.31736675708,-75803.28146258372,-187500.02235174447
1741731686.3108675,-76302.21710231509,-83925.19014181974,-75504.79626712755,-75792.35145954508,-127650.07497669161,-74815.51317161479,-76769.34620968656,-187500.02235174447
1741731686.3108754,-76567.77817818859,-84062.5416114976,-74936.14553644009,-76358.38703613127,-127228.74459370907,-74982.61481316267,-76079.10198916221,-187500.02235174447
1741731686.310887,-76039.11471833166,-83089.05608523561,-76104.53827435235,-74803.73380228685,-128737.46499269785,-74773.60365076108,-74989.40974347708,-187500.02235174447
1741731686.310895,-75741.74711009827,-82842.18106772675,-76807.92532061641,-74057.74433109097,-129364.8337560694,-74585.93840431434,-75574.17608191683,-187500.02235174447
1741731686.3109024,-76256.44072967062,-83790.38677100978,-75700.53049332267,-75535.10523260894,-127927.48247712642,-74765.46761577936,-76757.65624733642,-187500.02235174447
1741731686.3109102,-76656.849879843,-84175.90965937491,-74836.47910791387,-76503.53926462404,-127111.73321148554,-74979.19499626101,-76363.50558561154,-187500.02235174447
1741731686.310918,-76245.01898825396,-83302.87287269508,-75827.17547740645,-75189.83783600782,-128448.90397177983,-74835.42857592447,-75182.43940859311,-187500.02235174447
1741731686.3109272,-75783.85779665205,-82784.15593912077,-76768.11686374151,-74041.74048206097,-129386.5372999355,-74573.06379950808,-75396.54676873049,-187500.02235174447
1741731686.3109353,-76142.49153643746,-83579.96744870752,-75851.47182362937,-75215.94467353162,-128127.17296209015,-74663.90128897445,-76593.34857384546,-187500.02235174447
1741731686.3109436,-76641.40482442437,-84185.63266821297,-74737.25971427676,-76518.1573054978,-126973.68883772957,-74912.74325999538,-76509.55188388251,-187500.02235174447
1741731686.310952,-76340.97502720059,-83453.3448163682,-75451.24148741264,-75510.7194794082,-128027.46183007502,-74830.13121248856,-75276.0708661164,-187500.02235174447
1741731686.3109603,-75798.27467182573,-82741.10647929985,-76603.69743152827,-74074.15051152116,-129265.07792056537,-74548.63334281843,-75183.42288534915,-187500.02235174447
1741731686.3109684,-76046.71431144647,-83386.06606555774,-75999.4403719235,-74915.09019316318,-128329.00921452156,-74584.21731999128,-76417.8426763824,-187500.02235174447
1741731686.3109767,-76601.64107103838,-84162.61037142402,-74705.36377493903,-76457.51702279056,-126898.13994147062,-74840.68123587147,-76626.71972831723,-187500.02235174447
1741731686.3109856,-76454.20896461117,-83634.8409813453,-75120.77094564092,-75845.41450088198,-127621.17417111089,-74837.66375037,-75441.38436810784,-187500.02235174447
1741731686.310995,-75886.407600213,-82785.31822983244,-76431.72310968913,-74228.44460349616,-129097.39513366166,-74566.0006482602,-75072.78175029537,-187500.02235174447
1741731686.3110037,-75976.86511002363,-83205.41926686994,-76153.28742900938,-74650.13261438998,-128520.45190578127,-74522.50415355017,-76221.75082227598,-187500.02235174447
1741731686.3110125,-76572.20382359074,-84116.0069842347,-74780.91267119798,-76343.59018130186,-126933.23218026546,-74780.15271188649,-76747.68736930935,-187500.02235174447
1741731686.3110373,-76532.8647533494,-83789.13507332029,-74824.14094497454,-76129.95220779804,-127228.05168963096,-74825.23618045285,-75622.47820168475,-187500.02235174447
1741731686.3110666,-75916.38128952758,-82818.39881162629,-76153.19802203156,-74398.27315786757,-128796.56300503768,-74552.20962193128,-74909.39049832708,-187500.02235174447
1741731686.3110762,-75893.00136482733,-83028.16993333935,-76264.66617163018,-74405.13514341535,-128671.54969829915,-74470.46929245822,-75963.90109823956,-187500.02235174447
1741731686.3110847,-76497.68310757674,-84017.65930863134,-74914.79962048527,-76141.73157712597,-127038.84417281678,-74720.96529256884,-76792.99435532026,-187500.02235174447
1741731686.3110936,-76634.00639700967,-83961.6681887708,-74637.68269272837,-76396.74262961658,-126945.43623273805,-74849.15254702003,-75892.7107921494,-187500.02235174447
1741731686.3111029,-76066.78617796734,-82979.01844728214,-75954.69217952398,-74713.29864422067,-128552.52665907463,-74619.04133785264,-74973.47294968045,-187500.02235174447
1741731686.3111107,-75857.7079603324,-82907.6716789808,-76400.52007442953,-74244.56021124843,-128828.12366820857,-74451.91734456031,-75760.05318880716,-187500.02235174447
1741731686.3111188,-76374.74851307255,-83862.91818176725,-75113.97601532651,-75856.657428343,-127206.50460797604,-74637.03449213917,-76747.64266582044,-187500.02235174447
1741731686.3111277,-76657.11810077645,-84067.72721621123,-74504.33218530801,-76549.1144715684,-126703.32213679818,-74826.01849150879,-76103.53244585186,-187500.02235174447
1741731686.3111458,-76142.49153643746,-83115.54290241515,-75679.4080948124,-75005.23477855144,-128201.47016065958,-74635.0675386271,-74988.62743242114,-187500.02235174447
1741731686.3111544,-75783.8354449076,-82785.1394158768,-76429.97967362162,-74111.65673871717,-128871.10607279613,-74412.28770164105,-75473.05679000102,-187500.02235174447
1741731686.3111627,-76241.95679926357,-83688.1051883823,-75334.90065752277,-75537.76509019913,-127423.69650884825,-74560.63622959092,-76638.94613253429,-187500.02235174447
1741731686.3111713,-76644.15408899238,-84127.76400181818,-74422.94948374624,-76610.49236184268,-126530.00671029172,-74790.65803178049,-76279.59713692631,-187500.02235174447
1741731686.3111794,-76235.81006953836,-83282.3539712851,-75390.53414947202,-75326.07171846292,-127837.53905743828,-74668.43869309887,-75066.00917172541,-187500.02235174447
1741731686.311188,-75760.45552020735,-82722.88980756878,-76411.91946410174,-74076.67625864461,-128872.82715711919,-74415.03696620905,-75236.77649936396,-187500.02235174447
1741731686.3111973,-76136.99300730145,-83521.1153055567,-75606.60846312148,-75227.00878703699,-127713.4421722224,-74523.97936868422,-76522.65000613332,-187500.02235174447
1741731686.311206,-76625.71389981675,-84156.41893820988,-74451.29149571556,-76598.73534425918,-126479.38000910045,-74772.41900830496,-76471.95624970869,-187500.02235174447
1741731686.3112142,-76337.93518995466,-83460.74324378291,-75128.83992538929,-75647.24393454123,-127487.95777415727,-74713.52216166523,-75215.94467353162,-187500.02235174447
1741731686.3112233,-75797.2464915808,-82727.51661867103,-76370.68049558169,-74140.31167510888,-128837.17612471296,-74453.50431841664,-75084.11408473422,-187500.02235174447
1741731686.3112311,-76021.9932820789,-83336.22167542239,-75871.07430351667,-74901.94736742346,-128008.0605158878,-74487.12134207741,-76335.87882946478,-187500.02235174447
1741731686.3112395,-76610.7829345206,-84165.18082203637,-74591.2581194947,-76522.69470962223,-126566.08242584259,-74763.83593843412,-76661.92372583435,-187500.02235174447
1741731686.311247,-76468.40232234029,-83669.64264746221,-74934.7373765394,-75977.02157223482,-127203.48712247457,-74766.71931346886,-75471.3133539335,-187500.02235174447
1741731686.311255,-75859.4513963999,-82782.54661351998,-76270.2988112329,-74290.94008099318,-128733.10640252905,-74491.09995259046,-74993.52246445685,-187500.02235174447
1741731686.3112695,-75916.40364127203,-83162.30275181566,-76104.24770167444,-74616.06855584009,-128288.61961229081,-74446.53057414659,-76123.13492573917,-187500.02235174447
1741731686.3112776,-76513.061107762,-84088.46963506576,-74741.23832478981,-76332.07903290738,-126686.42421798996,-74707.17426623992,-76723.30161610861,-187500.02235174447
1741731686.3112855,-76543.50418371013,-83841.25934139006,-74748.90497313798,-76239.67692132914,-126935.80263087782,-74793.0496684372,-75691.3215746071,-187500.02235174447
1741731686.311294,-75933.61448450261,-82874.09935880892,-76118.12813498118,-74501.80643818456,-128567.43527262632,-74537.39041535741,-74932.8821817496,-187500.02235174447
1741731686.3113022,-75829.0977274296,-83004.96882259475,-76315.0693553769,-74374.17797734475,-128553.13015617493,-74428.2691989266,-75877.53395766426,-187500.02235174447
1741731686.3113282,-76375.24025145058,-83954.38152007837,-74948.57310635723,-76056.59378249572,-126889.75803729988,-74644.58938176506,-76690.33279303704,-187500.02235174447
1741731686.3113513,-76556.31173328302,-83956.37082533489,-74600.04235506563,-76405.61627216534,-126718.76719221678,-74796.5588923167,-75862.29006794574,-187500.02235174447
1741731686.3113604,-75995.685278855,-82982.55002290607,-75912.20151331443,-74737.79615614368,-128352.47854619964,-74586.4077909479,-74901.83560870119,-187500.02235174447
1741731686.3113692,-75710.25350216073,-82836.77194556856,-76428.95149337668,-74149.49824208001,-128738.9402078319,-74401.00007069112,-75569.81749174804,-187500.02235174447
1741731686.311378,-76262.52040416247,-83815.59953875537,-75226.38293819224,-75757.50508993925,-127205.85640738683,-74614.61569245049,-76666.23761251422,-187500.02235174447
1741731686.3113863,-76609.75475427565,-84084.26750710816,-74561.66440983587,-76545.87346862239,-126627.86264751705,-74824.90090428603,-76145.28550449437,-187500.02235174447
1741731686.3113956,-76106.75109705342,-83145.80716440764,-75694.3167083641,-75048.57481105028,-128113.49369448349,-74647.53981203315,-74986.19109227552,-187500.02235174447
1741731686.311404,-75719.84240053206,-82780.95963966366,-76553.5177652261,-74091.09313381829,-128943.12339343112,-74437.50046938664,-75399.85482690988,-187500.02235174447
1741731686.3114123,-76140.9269143256,-83651.44832747559,-75525.2257615597,-75442.6584175418,-127563.14904250493,-74575.74600884272,-76569.05222762254,-187500.02235174447
1741731686.311421,-76595.67315526881,-84149.04286253965,-74572.54970938561,-76588.6770592543,-126612.17172290942,-74827.42665140946,-76323.92064618118,-187500.02235174447
1741731686.3114283,-76201.20956912155,-83327.39273636256,-75483.69622036174,-75367.15422477177,-127889.21629061893,-74715.69028087739,-75086.86334930222,-187500.02235174447
1741731686.311437,-75686.44889431584,-82730.8246768504,-76598.17655064781,-74065.56744165033,-129077.99381947445,-74467.76473137912,-75162.61341126125,-187500.02235174447
1741731686.3114443,-76002.50256091387,-83475.07071197877,-75876.90810881951,-75108.20926525704,-128023.32675735078,-74557.93166851184,-76407.00208032156,-187500.02235174447
1741731686.311453,-76540.28553250855,-84165.58315343657,-74715.98085355532,-76527.03094804657,-126770.04209399725,-74829.0136252658,-76482.1486451803,-187500.02235174447
1741731686.3114607,-76315.15876235471,-83534.12402082968,-75368.56238467245,-75681.79973146913,-127773.0095711958,-74803.28676739775,-75297.93087219368,-187500.02235174447
1741731686.311468,-75717.36135689753,-82741.59821767786,-76659.97912406673,-74128.35349182528,-129230.63388235973,-74528.2932553641,-75045.84789822673,-187500.02235174447
1741731686.311476,-75897.53876895175,-83291.78640744525,-76255.85958431478,-74783.88545321053,-128527.51505702914,-74548.47688060724,-76265.60494489729,-187500.02235174447
1741731686.3114889,-76516.48092466366,-84141.37621419146,-74933.932713739,-76402.82230410843,-127018.59349234027,-74821.77166006228,-76698.71469720778,-187500.02235174447
1741731686.3114967,-76419.49670547208,-83687.3005255819,-75160.66880949364,-75954.3792551016,-127545.62527485196,-74828.2089624654,-75551.3325990835,-187500.02235174447
1741731686.3115044,-75789.57984323261,-82768.77793893551,-76499.67241283327,-74286.11210419085,-129142.83623013929,-74545.83937476152,-74969.56139440076,-187500.02235174447
1741731686.3115125,-75788.14933158748,-83077.09790195202,-76402.7776006195,-74512.1329441229,-128801.39098184003,-74474.51495820463,-76013.79019186381,-187500.02235174447
1741731686.3115206,-76397.65905113924,-84008.1821689823,-74988.80624637679,-76199.01909816494,-127125.59129304782,-74721.30056873568,-76679.96158360978,-187500.02235174447
1741731686.311528,-76509.39542167133,-83830.9328354517,-74879.7744369238,-76227.07053745634,-127254.06912017694,-74825.68321534195,-75750.9783805583,-187500.02235174447
1741731686.3115356,-75884.53005367877,-82850.45121317521,-76225.03652871092,-74552.43313937583,-128925.26434961133,-74566.15711047138,-74906.57417852571,-187500.02235174447
1741731686.3115444,-75696.32836536507,-82909.23630109266,-76508.054317004,-74344.22663977464,-129050.52352553887,-74434.97472226318,-75721.09409822155,-187500.02235174447
1741731686.3115535,-76290.39302949823,-83894.52354842705,-75199.47143786805,-76002.54726440279,-127421.01429951363,-74675.61360306902,-76661.18611826732,-187500.02235174447
1741731686.3115628,-76545.69465466675,-83958.20366838023,-74743.80877540217,-76432.37131027834,-127111.06265915188,-74835.58503813566,-75956.1226911691,-187500.02235174447
1741731686.3115704,-75945.08092940818,-82966.85909829845,-75986.25284269487,-74834.89213405755,-128737.15206827546,-74605.89851211292,-74871.50429147534,-187500.02235174447
1741731686.311578,-75613.42574518034,-82792.67195375824,-76659.30857173307,-74228.10932732932,-129365.79488108098,-74443.6695508563,-75442.3007896305,-187500.02235174447
1741731686.311586,-76161.33405701329,-83769.93492483317,-75557.90401195336,-75748.74320611278,-127916.66423281006,-74670.4279983554,-76606.69256528528,-187500.02235174447
1741731686.3115933,-76551.84138439196,-84081.76411172916,-74811.98159599086,-76548.6227331904,-127221.6814424612,-74887.55284399424,-76189.51960677143,-187500.02235174447
1741731686.3116007,-76061.22059359796,-83168.85181294105,-75915.66603370501,-75152.42101578963,-128745.42221372393,-74724.67568214843,-75007.89463614162,-187500.02235174447
1741731686.3116086,-75593.95737575977,-82736.0326333085,-76894.91831003646,-74164.0045242315,-129789.91923212043,-74504.9356824083,-75284.96686040961,-187500.02235174447
1741731686.3116162,-76060.12535811965,-83601.93921350708,-75982.34128741518,-75419.52436203056,-128509.49955099817,-74658.55922204963,-76589.6828877548,-187500.02235174447
1741731686.3116236,-76583.5808615185,-84135.63181586645,-74899.06399238874,-76538.58679992995,-127360.48577552865,-74893.85603593064,-76497.54899711002,-187500.02235174447
1741731686.3116314,-76227.9422554901,-83345.45294588244,-75687.85705421651,-75413.35528056089,-128557.30993238807,-74776.17410137346,-75255.68607517316,-187500.02235174447
1741731686.3116388,-75663.22543182677,-82688.73634204107,-76805.64544268197,-74099.74325892249,-129837.08141292114,-74494.7879904256,-75192.14006568672,-187500.02235174447
1741731686.3116465,-75971.8806710101,-83399.16418780854,-76102.12428595118,-75046.3172848603,-128795.24425211482,-74564.39132265942,-76437.13223184732,-187500.02235174447
1741731686.3116539,-76552.35547451442,-84118.04099298012,-74793.60846204859,-76436.93106614723,-127312.96596681667,-74814.77556404777,-76583.49145454066,-187500.02235174447
1741731686.3116667,-76353.38024537328,-83515.23679676495,-75274.8191684269,-75670.15447260792,-128159.4488810836,-74775.23532810633,-75362.28154448052,-187500.02235174447
1741731686.3116865,-75710.07468820509,-82699.57693810189,-76596.36605934692,-74146.5478118119,-129764.88527833049,-74496.97846138221,-74965.53808039881,-187500.02235174447
1741731686.311694,-75831.44466059741,-83211.96832799535,-76308.38618378475,-74706.50371390626,-129198.78264651092,-74513.22817960122,-76123.13492573917,-187500.02235174447
1741731686.3117013,-76493.50333136361,-84104.51818758466,-74976.22221424845,-76288.35902075279,-127583.10915030351,-74803.5102848423,-76674.10542656248,-187500.02235174447
1741731686.3117087,-76459.55103153599,-83732.00401449252,-75139.68052145011,-75930.03820538976,-128045.90201925064,-74843.20698299492,-75592.45980888126,-187500.02235174447
1741731686.3117163,-75794.81015143516,-82821.41629712777,-76578.05998063803,-74287.96729898063,-129866.8539365356,-74587.63713689294,-74909.01051867135,-187500.02235174447
1741731686.3117237,-75707.05720270363,-83063.41863434538,-76661.5437461786,-74380.21294834769,-129751.47423165731,-74517.47501104773,-75862.82650981266,-187500.02235174447
1741731686.3117309,-76365.13726295678,-84014.48536091868,-75321.42255561621,-76005.45299118197,-128053.16633619861,-74789.62985153554,-76695.54074949512,-187500.02235174447
1741731686.3117385,-76530.38370971486,-83882.05127502099,-75115.76415488293,-76064.59570701071,-128040.2693796479,-74898.2816813328,-75872.34835295062,-187500.02235174447
1741731686.311746,-75876.43872218594,-82885.92343162578,-76432.99715912309,-74374.51325351158,-129796.2894792902,-74625.79156467815,-74938.22424867442,-187500.02235174447
1741731686.3117535,-75658.0621788576,-82895.7134956972,-76811.30043402917,-74084.65583141516,-130090.05845666629,-74484.0815048315,-75708.95710098233,-187500.02235174447
1741731686.311761,-76275.41736071317,-83874.76460632856,-75475.78370282456,-75729.74422332576,-128338.53105765952,-74710.30351046367,-76736.31033138161,-187500.02235174447
1741731686.3117683,-76602.82571349452,-84003.22008171321,-74872.33130602018,-76284.91685210667,-127806.55953962321,-74873.71711417641,-76127.53821939685,-187500.02235174447
1741731686.3117769,-76030.0399100828,-83036.84241018801,-76061.8017389538,-74760.57258374365,-129467.54002184153,-74650.0655591566,-74994.61769993517,-187500.02235174447
1741731686.3117845,-75607.48018115523,-82761.64773245428,-76755.08579672406,-74039.68412157109,-130185.6345159572,-74431.55490536153,-75397.99963212009,-187500.02235174447
1741731686.311792,-76118.84339080374,-83678.27042082197,-75598.36066941747,-75496.74963912363,-128586.72482809125,-74610.12299181498,-76548.2651052791,-187500.02235174447
1741731686.3117993,-76603.49626582817,-84065.35793129898,-74711.19758024187,-76419.78727815,-127635.65810151794,-74840.83769808266,-76272.44457870061,-187500.02235174447
1741731686.311807,-76134.78018460039,-83177.85956595655,-75701.91630147891,-75069.94307874955,-129084.16290094411,-74671.18795766687,-75041.89163945815,-187500.02235174447
1741731686.3118143,-75626.21094300877,-82698.21348169011,-76725.40268008741,-73989.39269654664,-130258.83647904832,-74436.24877169714,-75202.53362685844,-187500.02235174447
1741731686.3118217,-76036.14193631911,-83518.6119101777,-75841.68175955793,-75180.15953065867,-128940.26237014084,-74567.29704943861,-76457.65113325728,-187500.02235174447
1741731686.3118289,-76631.21242895276,-84119.94089125883,-74701.13929523698,-76414.15463854726,-127601.32582203459,-74829.48301189936,-76494.84443603092,-187500.02235174447
1741731686.3118365,-76309.88375066326,-83379.74052187688,-75418.27266434106,-75360.29223922399,-128736.07918454161,-74727.2908362497,-75254.43437748366,-187500.02235174447
1741731686.3118486,-75661.861975415,-82668.28449586446,-76616.84025726799,-73951.28297225034,-130201.03486788689,-74435.53351587457,-75023.98789214944,-187500.02235174447
1741731686.311856,-75913.05087960373,-83322.5200560713,-76031.4480699835,-74812.49568611333,-129235.93124579564,-74497.47019976022,-76244.16962196465,-187500.02235174447
1741731686.3118637,-76572.22617533519,-84096.02452469165,-74698.07710624661,-76312.65536697571,-127583.9138131039,-74774.0506856502,-76584.18435861879,-187500.02235174447
1741731686.3118713,-76426.78337416452,-83555.69345422905,-75091.221939471,-75662.53252774866,-128322.50485688506,-74752.97299062884,-75422.51949578756,-187500.02235174447
1741731686.3118796,-75770.93848835689,-82727.56132215993,-76470.21281364118,-74098.02217459943,-130077.13914837113,-74480.30406001855,-74956.91030703907,-187500.02235174447
1741731686.3118868,-75819.06179416917,-83147.7294144308,-76219.87327574173,-74531.93658971031,-129524.64872892485,-74448.76574859211,-76036.58897120821,-187500.02235174447
1741731686.3118944,-76500.74529656713,-84046.24718978968,-74797.43061035045,-76158.85301337874,-127689.97284054433,-74722.50756293625,-76660.91789733386,-187500.02235174447
1741731686.7906115,-76558.39044551736,-83754.17694499218,-74852.57236392169,-75935.1791066145,-127990.64850695712,-74789.31692711318,-75686.58300478256,-187500.02235174447
1741731686.790687,-75849.19194569493,-82788.20160486718,-76227.96460723455,-74229.22691455208,-129809.18643584091,-74493.82686541401,-74871.28077403078,-187500.02235174447
1741731686.7906961,-75714.45563011833,-82964.42275815282,-76341.4667655786,-74221.22499003708,-129734.75512680474,-74391.47822755316,-75749.88314507999,-187500.02235174447
1741731686.790704,-76387.35489694535,-83935.7625169471,-74942.58283884321,-75896.73410615136,-127860.09196759367,-74655.36292259251,-76641.42717616883,-187500.02235174447
1741731686.7907207,-76604.61385305093,-83879.07849300843,-74624.58457047756,-76102.92894875156,-127662.94958149787,-74783.37136308807,-75858.93730627744,-187500.02235174447
1741731686.7907283,-75950.13242365509,-82889.61146946091,-75959.4754528374,-74436.09230948596,-129489.6682488523,-74528.02503443063,-74837.6190468811,-187500.02235174447
1741731686.7907372,-75677.10586513352,-82837.37544266885,-76464.51311880507,-74037.6724645701,-129933.84211466815,-74379.8553204364,-75530.00903487313,-187500.02235174447
1741731686.7907448,-76267.996581554,-83795.88530014579,-75152.53277451191,-75645.79107115163,-128110.34209851529,-74592.59922416201,-76598.22125413672,-187500.02235174447
1741731686.790753,-76622.42819338181,-83977.58263082297,-74463.2273272547,-76280.6029654268,-127409.63726158587,-74769.42387454795,-76052.39165453812,-187500.02235174447
1741731686.7907605,-76040.03113985433,-83015.8988256334,-75633.20703902328,-74761.46665352186,-129086.04044747836,-74554.0424649766,-74859.72492214739,-187500.02235174447
1741731686.7907689,-75594.62792809342,-82700.69452532465,-76445.78235695152,-73956.62503917517,-129975.75163552185,-74342.52790719604,-75225.39946143622,-187500.02235174447
1741731686.790776,-76118.30694893682,-83621.54169339439,-75359.26405897905,-75401.91118739978,-128387.52608150555,-74530.30491236507,-76462.07677865944,-187500.02235174447
1741731686.7907836,-76628.75373706267,-84056.37253002793,-74390.09241939693,-76413.41703098024,-127269.24595466208,-74767.07694138015,-76250.22694471203,-187500.02235174447
1741731686.7907913,-76191.21833935003,-83208.52615934923,-75360.89573632428,-75130.73982366799,-128712.1851697189,-74623.69050069935,-75019.91987465858,-187500.02235174447
1741731686.7907984,-75622.5452569181,-82664.8646789628,-76454.47718554463,-73947.84080360422,-130003.02076375733,-74369.28294530904,-75074.90516601862,-187500.02235174447
1741731686.790806,-75989.60560436315,-83442.30305460728,-75622.85818134049,-75069.54074734935,-128710.57584411811,-74479.78996989608,-76322.80305895842,-187500.02235174447
1741731686.7908137,-76599.18237914829,-84084.78159723063,-74413.29353014154,-76377.34131542937,-127234.06430888943,-74747.36270277057,-76422.60359795137,-187500.02235174447
1741731686.7908208,-76315.5610937549,-83390.31289700425,-75083.71175333402,-75407.52147525805,-128319.21915045014,-74670.27153614421,-75194.10701919878,-187500.02235174447
1741731686.7908285,-75646.57338220757,-82638.73548969455,-76355.66012330772,-73937.33548371024,-129901.94617533043,-74379.34123031393,-74898.61695749962,-187500.02235174447
1741731686.7908356,-75884.5077019343,-83266.19366004392,-75873.64475412903,-74724.40746121496,-129039.21354284449,-74442.95429503373,-76141.46335619251,-187500.02235174447
1741731686.7908432,-76583.49145454066,-84097.61149854798,-74530.6401885319,-76269.15887226569,-127320.6549669093,-74738.28789452171,-76594.30969885703,-187500.02235174447
1741731686.7908504,-76479.57819456795,-83610.58933861129,-74865.2681547723,-75703.74914452423,-127977.52803296185,-74735.24805727578,-75466.35126666442,-187500.02235174447
1741731686.790858,-75743.15526999894,-82697.54292935645,-76230.55740959138,-74062.25938347094,-129749.35081593406,-74422.8153732795,-74831.58407587816,-187500.02235174447
1741731686.7908804,-75754.7781771157,-83063.64215178993,-76063.79104421033,-74405.62688179337,-129304.64050825126,-74381.19642510371,-75878.02569604227,-187500.02235174447
1741731686.790888,-76463.84256647142,-84002.57188112401,-74645.97518992129,-76060.5500412643,-127432.34663395246,-74670.74092277777,-76608.41364960834,-187500.02235174447
1741731686.790896,-76536.8657156069,-83750.95829379062,-74614.10160232802,-75891.36968748209,-127612.94872915135,-74745.61926670304,-75645.58990545153,-187500.02235174447
1741731686.790908,-75820.93934070341,-82772.15305234827,-76011.86794184065,-74159.26595440698,-129490.18233897476,-74458.01937079661,-74770.16148211497,-187500.02235174447
1741731686.790916,-75685.10778964851,-82923.2731966106,-76247.07534874385,-74081.37012498023,-129570.84978471397,-74366.86895690787,-75658.86684165799,-187500.02235174447
1741731686.7909236,-76409.01373732254,-83944.4126420513,-74896.56059700974,-75785.9812123753,-127708.48008495332,-74656.90519295994,-76683.2025865558,-187500.02235174447
1741731686.7909307,-76637.9403040338,-83925.57012147548,-74479.9240803628,-76070.04953265781,-127368.0183134101,-74781.98555493183,-75922.55037099724,-187500.02235174447
1741731686.7909384,-75945.55031604176,-82902.2178533337,-75771.87726162402,-74387.14198912884,-129180.20834686856,-74507.39437429838,-74792.13324691454,-187500.02235174447
1741731686.7909458,-75614.96801554775,-82774.70115121617,-76340.08095742238,-73875.62231726912,-129728.29547265715,-74334.66009314777,-75389.57302446045,-187500.02235174447
1741731686.7909536,-76238.93931376211,-83761.39655845125,-75083.73410507847,-75466.26185968661,-127942.70401510049,-74570.22512796226,-76550.85790763592,-187500.02235174447
1741731686.7909613,-76686.33183077954,-84047.76710841265,-74378.04482913553,-76172.10759784075,-127180.77775010798,-74794.54723531571,-76154.71794065452,-187500.02235174447
1741731686.790969,-76094.54704458083,-83079.84716652002,-75519.34725276796,-74597.94129108683,-128831.81170604369,-74570.47099715126,-74900.71802147842,-187500.02235174447
1741731686.7909763,-75621.51707667316,-82715.15610398723,-76424.39173750779,-73606.88729368297,-129853.50994509578,-74349.97103809965,-75200.79019079093,-187500.02235174447
1741731686.7909849,-76150.91814409712,-83636.67382439063,-75403.07347811144,-74924.29911187878,-128314.72644981463,-74539.40207235838,-76482.23805215812,-187500.02235174447
1741731686.7909923,-76737.29380813763,-84162.34215049054,-74404.66575678179,-75985.76110431684,-127128.72053727157,-74810.50638085681,-76395.08860052688,-187500.02235174447
1741731686.7909997,-76270.18705251064,-83304.32573608468,-75278.26133707301,-74633.10058511503,-128489.6735536663,-74642.89064918646,-75067.12675894819,-187500.02235174447
1741731686.7910073,-75661.10201610351,-82705.03076374898,-76414.42285948072,-73287.61497588336,-129890.50208216932,-74374.75912270059,-75009.41455476457,-187500.02235174447
1741731686.791015,-76046.64725621311,-83486.62656386216,-75663.69481846032,-74338.05755830498,-128698.23768117878,-74500.51003700616,-76310.08491636335,-187500.02235174447
1741731686.791022,-76717.71367999479,-84206.5762527676,-74418.94852148874,-75684.39253382594,-127154.46974688409,-74794.7036975269,-76518.13495375335,-187500.02235174447
1741731686.7910297,-76447.07875812994,-83552.43009953859,-75002.66432793908,-74675.30067864666,-128162.77929100745,-74725.70386239336,-75248.84644136982,-187500.02235174447
1741731686.791037,-75785.95886063085,-82795.46592181515,-76333.93422769717,-73060.90123187318,-129872.62068660506,-74451.51501316011,-74898.61695749962,-187500.02235174447
1741731686.7910445,-76047.40721552458,-83425.8968741771,-75947.49491780937,-73722.11053635008,-129143.14915456166,-74529.85787747597,-76173.15812983015,-187500.02235174447
1741731686.7910519,-76827.90778015945,-84344.64297826804,-74594.92380558536,-75307.96680545411,-127406.03863072857,-74860.88721285906,-76752.60475308953,-187500.02235174447
1741731686.7910593,-76758.66207583691,-83916.62942369336,-74822.84454379613,-74740.47836547832,-127966.84389911222,-74872.19719555345,-75618.03020453814,-187500.02235174447
1741731686.7910666,-76043.16038407807,-83015.80941865557,-76194.99578416298,-72963.11234988122,-129818.97649991233,-74577.69061061033,-74935.94437073999,-187500.02235174447
1741731686.7910793,-76064.05926514379,-83367.62587638211,-76083.97466945347,-73207.68513771119,-129508.73428687267,-74541.43608110382,-75981.22370019242,-187500.02235174447
1741731686.7910876,-76812.95446311885,-84343.5030393008,-74621.8129541651,-75008.49813324191,-127625.19748511285,-74836.38970093605,-76791.96617507531,-187500.02235174447
1741731686.7910948,-76903.16610374047,-84121.28199592615,-74443.20016422274,-75063.32696239078,-127677.34410492709,-74903.06495464622,-75827.75662276229,-187500.02235174447
1741731686.7911024,-76172.59933621876,-83111.29607096864,-75785.06479085264,-73402.50294238364,-129550.50969725964,-74605.18325629036,-74875.10292233263,-187500.02235174447
1741731686.7911098,-75943.80687997423,-83149.96458887632,-76009.02927029482,-73296.64508064331,-129677.24408832123,-74459.31577197502,-75640.96309434928,-187500.02235174447
1741731686.7911172,-76589.86170171043,-84102.43947535033,-74577.19887223231,-75152.01868438943,-127754.23410585333,-74695.23843470079,-76616.99671947917,-187500.02235174447
1741731686.7911248,-76789.5745384186,-84079.1489576279,-74010.62685377919,-75672.81433019809,-127257.75715801206,-74796.87181673906,-75832.0481576977,-187500.02235174447
1741731686.7911325,-76084.48875957594,-83042.38564281294,-75246.5665634354,-74068.07083702933,-129035.2572840759,-74527.08626116351,-74649.8196899676,-187500.02235174447
1741731686.79114,-75717.6742813199,-82860.17422201327,-75876.63988788603,-73516.54154259463,-129691.75037047273,-74348.11584330986,-75212.21193220759,-187500.02235174447
1741731686.7911475,-76273.71862813456,-83780.68611391618,-74607.79841039162,-75194.03996396542,-127897.12880815612,-74536.38458685692,-76362.49975711104,-187500.02235174447
1741731686.791155,-76670.52914744963,-84043.72144266622,-73766.50110083832,-76132.90263806614,-126966.42452078158,-74721.81465885814,-75937.7272054824,-187500.02235174447
1741731686.7911625,-76092.20011141303,-83093.92876552687,-74862.40713148203,-74696.82540855711,-128565.31185690306,-74518.45848780376,-74684.26372817323,-187500.02235174447
1741731686.7911701,-75571.06918943753,-82663.8588504623,-75815.3961080785,-73691.33218423513,-129653.43948047633,-74280.90414773276,-74934.1338794391,-187500.02235174447
1741731686.7911775,-76009.65511913957,-83494.38261918815,-74789.4510375799,-75083.51058763392,-128110.00682234846,-74410.6113208069,-76172.64403970767,-187500.02235174447
1741731686.791186,-76557.13874782786,-84004.8741108029,-73694.1932075254,-76374.50264388355,-126778.13342549009,-74647.47275679979,-76098.99504172744,-187500.02235174447
1741731686.7911932,-76080.15252115161,-83150.0763475986,-74497.89488290487,-75179.51133006946,-128024.93608295156,-74482.40512399735,-74744.50167948028,-187500.02235174447
1741731686.7912009,-75453.3649031359,-82514.16921784512,-75709.62765331598,-73823.18512477698,-129495.88203381086,-74221.29204527046,-74665.4212075974,-187500.02235174447
1741731686.7912085,-75743.8258223326,-83197.32793537712,-74993.61187143468,-74853.73465463337,-128312.80419979147,-74288.97312748112,-75903.55138821022,-187500.02235174447
1741731686.791216,-76369.7193705701,-83888.30976346848,-73680.20101549638,-76396.69792612767,-126637.65271158848,-74548.00749397368,-76121.32443443828,-187500.02235174447
1741731686.7912233,-76130.93568455406,-83268.04885483372,-74225.69533892816,-75615.07977427004,-127554.34245518953,-74503.48281901871,-74911.26804486132,-187500.02235174447
1741731686.791231,-75430.07438541346,-82462.76020559791,-75607.81545732207,-73998.40044956213,-129302.85236869483,-74226.54470521746,-74510.50126677768,-187500.02235174447
1741731686.7912388,-75599.85823629597,-82990.41783695434,-75287.2690900885,-74637.14625086143,-128612.98812782623,-74254.75260672005,-75738.01436877422,-187500.02235174447
1741731686.791251,-76299.9595761251,-83841.32639662342,-73864.91583167504,-76361.27041116601,-126723.52811378577,-74523.82290647304,-76293.16464581068,-187500.02235174447
1741731686.7912588,-76240.05690098487,-83434.63640625912,-74039.25943842644,-75999.32861320121,-127157.24136319655,-74545.43704336132,-75196.11867619977,-187500.02235174447
1741731686.7912662,-75486.51254016311,-82490.99045884496,-75471.00042951113,-74227.28231278447,-129040.28642657834,-74254.37262706431,-74457.03589404057,-187500.02235174447
1741731686.7912736,-75465.77012130858,-82779.55147976297,-75515.16747655481,-74398.58608228996,-128836.59497935713,-74204.93056832918,-75501.44350545926,-187500.02235174447
1741731686.791281,-76220.47677284203,-83757.90968631623,-74105.95704388106,-76217.86161874076,-126892.23908093442,-74487.94835662226,-76399.20132150667,-187500.02235174447
1741731686.7912896,-76342.29378012345,-83591.92563199111,-73892.07320118824,-76305.94984363911,-126805.08962930318,-74570.26983145117,-75491.38522045437,-187500.02235174447
1741731686.791297,-75586.2460239227,-82571.85907028426,-75274.08156085988,-74504.57805449702,-128694.50493985474,-74285.06157220145,-74458.9804958082,-187500.02235174447
1741731686.791305,-75368.80825386147,-82595.97660255154,-75681.15153087993,-74201.39899270523,-128990.48673993192,-74161.34466664132,-75243.63848491175,-187500.02235174447
1741731686.7913125,-76076.21861412747,-83593.06557095834,-74336.6941018932,-75959.34134237068,-127073.0423418334,-74412.80179176353,-76342.4725940791,-187500.02235174447
1741731686.79132,-76383.10806549885,-83691.88263319524,-73760.37672285756,-76498.35365991041,-126486.48786383723,-74562.46907263626,-75700.59754855603,-187500.02235174447
1741731686.7913272,-75684.37018208149,-82685.29417339494,-75018.46701126898,-74799.41991560697,-128279.41069357524,-74314.3423574379,-74481.1757780523,-187500.02235174447
1741731686.791335,-75288.25256684453,-82458.53572589585,-75783.2319478073,-74052.51402288843,-129087.04627597885,-74136.35541634029,-74981.98896431792,-187500.02235174447
1741731686.791354,-75940.63293226158,-83436.98333942692,-74645.46109979882,-75668.74631270723,-127374.12033964638,-74362.71153243918,-76277.98781132554,-187500.02235174447
1741731686.7913618,-76437.40045278078,-83807.66466947373,-73771.57494682967,-76652.37953095192,-126339.34633008795,-74580.03754377813,-75980.19551994748,-187500.02235174447
1741731686.7913692,-75848.94607650592,-82881.11780656788,-74822.7551368183,-75183.37818186023,-127909.46697109545,-74383.07397163796,-74662.06844592911,-187500.02235174447
1741731686.7913768,-75287.44790404415,-82403.5504345358,-75881.28905073274,-74040.39937739365,-129161.92461990412,-74150.0570356914,-74820.6093693506,-187500.02235174447
1741731686.791384,-75822.3475006041,-83286.04200912024,-75006.46412449647,-75390.46709423866,-127743.05823362569,-74325.89820932128,-76188.06674338183,-187500.02235174447
1741731686.7913916,-76518.82785783146,-83944.01031065111,-73910.0440037303,-76762.39481716095,-126338.45226030974,-74624.94219838885,-76286.95086085211,-187500.02235174447
1741731686.7914,-76127.15823974113,-83204.1899209249,-74703.10624874906,-75608.1954369778,-127599.38122026698,-74518.90552269286,-74989.23092952144,-187500.02235174447
1741731686.7914073,-75476.65542085833,-82553.50828808645,-75999.08274401221,-74114.65187247418,-129245.78836510044,-74268.8789092158,-74821.03405249525,-187500.02235174447
1741731686.7914152,-75877.95864080891,-83300.77180871628,-75450.81680426799,-75093.18889298307,-128238.93168436667,-74394.96509968818,-76192.82766495082,-187500.02235174447
1741731686.7914226,-76670.48444396073,-84135.87768505546,-74158.68480905113,-76726.52026731017,-126497.57432908707,-74710.16939999693,-76624.01516723815,-187500.02235174447
1741731686.7914348,-76449.80567095347,-83576.48057657249,-74585.89370082543,-75947.71843525392,-127310.57433015996,-74663.43190234089,-75362.43800669171,-187500.02235174447
1741731686.7914422,-75723.79865930065,-82763.2794097995,-75996.42288642203,-74211.83725736586,-129228.10813523628,-74391.76880023108,-74843.74342486184,-187500.02235174447
1741731686.7914495,-75929.1217838671,-83293.2616225793,-75788.08227635411,-74775.14592112851,-128683.84315774956,-74440.16032697682,-76088.33325962225,-187500.02235174447
1741731686.7914572,-76772.00606727673,-84265.27193370723,-74393.33342234296,-76614.336861889,-126717.98488116085,-74764.73000821234,-76838.90483843147,-187500.02235174447
1741731686.7914648,-76807.61239619403,-83980.44365411326,-74486.8307693995,-76337.24228587655,-127073.0423418334,-74825.03501475275,-75814.56909353365,-187500.02235174447
